wavelength ,transmission
200,87.42839
201,87.77782
202,88.0833
203,88.34447
204,88.63473
205,88.90193
206,89.09737
207,89.33685
208,89.52925
209,89.62326
210,89.78714
211,89.90145
212,90.01561
213,90.11251
214,90.20165
215,90.2305
216,90.30229
217,90.35076
218,90.35607
219,90.40095
220,90.41387
221,90.38098
222,90.47105
223,90.48544
224,90.48172
225,90.5406
226,90.5586
227,90.52458
228,90.57682
229,90.6169
230,90.6068
231,90.71046
232,90.72859
233,90.75572
234,90.83079
235,90.91761
236,90.96413
237,91.06312
238,91.15471
239,91.17458
240,91.28686
241,91.36544
242,91.41145
243,91.4935
244,91.57248
245,91.58959
246,91.68351
247,91.77863
248,91.77577
249,91.83112
250,91.90164
251,91.87905
252,91.98394
253,91.98422
254,91.99367
255,92.01606
256,92.07748
257,92.0553
258,92.08649
259,92.12882
260,92.09136
261,92.15847
262,92.17665
263,92.15989
264,92.20548
265,92.21954
266,92.20027
267,92.25838
268,92.28366
269,92.2507
270,92.31917
271,92.32267
272,92.29323
273,92.35812
274,92.37256
275,92.32782
276,92.39217
277,92.42233
278,92.39715
279,92.44789
280,92.45639
281,92.46478
282,92.47307
283,92.48125
284,92.48933
285,92.4973
286,92.50518
287,92.51296
288,92.52064
289,92.52823
290,92.53572
291,92.54312
292,92.55044
293,92.55766
294,92.5648
295,92.57185
296,92.57882
297,92.58571
298,92.59251
299,92.59923
300,92.60588
301,92.61245
302,92.61894
303,92.62536
304,92.6317
305,92.63797
306,92.64417
307,92.6503
308,92.65636
309,92.66236
310,92.66828
311,92.67414
312,92.67994
313,92.68567
314,92.69134
315,92.69694
316,92.70249
317,92.70797
318,92.7134
319,92.71877
320,92.72408
321,92.72933
322,92.73453
323,92.73967
324,92.74476
325,92.7498
326,92.75478
327,92.75971
328,92.76459
329,92.76942
330,92.7742
331,92.77893
332,92.78362
333,92.78825
334,92.79284
335,92.79739
336,92.80188
337,92.80634
338,92.81074
339,92.81511
340,92.81943
341,92.82371
342,92.82795
343,92.83214
344,92.8363
345,92.84041
346,92.84449
347,92.84853
348,92.85252
349,92.85648
350,92.86041
351,92.86429
352,92.86814
353,92.87195
354,92.87573
355,92.87947
356,92.88318
357,92.88685
358,92.89049
359,92.89409
360,92.89767
361,92.90121
362,92.90471
363,92.90819
364,92.91163
365,92.91505
366,92.91843
367,92.92179
368,92.92511
369,92.9284
370,92.93167
371,92.9349
372,92.93811
373,92.94129
374,92.94444
375,92.94757
376,92.95067
377,92.95374
378,92.95678
379,92.9598
380,92.9628
381,92.96576
382,92.96871
383,92.97163
384,92.97452
385,92.97739
386,92.98023
387,92.98306
388,92.98585
389,92.98863
390,92.99138
391,92.99411
392,92.99682
393,92.99951
394,93.00217
395,93.00481
396,93.00743
397,93.01003
398,93.01261
399,93.01517
400,93.01771
401,93.02023
402,93.02272
403,93.0252
404,93.02766
405,93.0301
406,93.03252
407,93.03492
408,93.03731
409,93.03967
410,93.04202
411,93.04435
412,93.04666
413,93.04895
414,93.05123
415,93.05348
416,93.05573
417,93.05795
418,93.06016
419,93.06235
420,93.06452
421,93.06668
422,93.06883
423,93.07095
424,93.07306
425,93.07516
426,93.07724
427,93.07931
428,93.08136
429,93.08339
430,93.08541
431,93.08742
432,93.08941
433,93.09139
434,93.09335
435,93.0953
436,93.09724
437,93.09916
438,93.10107
439,93.10296
440,93.10484
441,93.10671
442,93.10857
443,93.11041
444,93.11224
445,93.11405
446,93.11586
447,93.11765
448,93.11943
449,93.1212
450,93.12295
451,93.1247
452,93.12643
453,93.12815
454,93.12986
455,93.13156
456,93.13324
457,93.13492
458,93.13658
459,93.13823
460,93.13988
461,93.14151
462,93.14313
463,93.14474
464,93.14634
465,93.14792
466,93.1495
467,93.15107
468,93.15263
469,93.15418
470,93.15572
471,93.15724
472,93.15876
473,93.16027
474,93.16177
475,93.16326
476,93.16474
477,93.16621
478,93.16768
479,93.16913
480,93.17057
481,93.17201
482,93.17343
483,93.17485
484,93.17626
485,93.17766
486,93.17905
487,93.18043
488,93.18181
489,93.18317
490,93.18453
491,93.18588
492,93.18722
493,93.18856
494,93.18988
495,93.1912
496,93.19251
497,93.19381
498,93.19511
499,93.19639
500,93.19767
501,93.19894
502,93.20021
503,93.20146
504,93.20271
505,93.20396
506,93.20519
507,93.20642
508,93.20764
509,93.20885
510,93.21006
511,93.21126
512,93.21246
513,93.21364
514,93.21482
515,93.216
516,93.21716
517,93.21832
518,93.21948
519,93.22062
520,93.22176
521,93.2229
522,93.22403
523,93.22515
524,93.22627
525,93.22738
526,93.22848
527,93.22958
528,93.23067
529,93.23176
530,93.23284
531,93.23391
532,93.23498
533,93.23604
534,93.2371
535,93.23815
536,93.2392
537,93.24024
538,93.24127
539,93.2423
540,93.24333
541,93.24434
542,93.24536
543,93.24637
544,93.24737
545,93.24837
546,93.24936
547,93.25035
548,93.25133
549,93.25231
550,93.25328
551,93.25425
552,93.25521
553,93.25617
554,93.25712
555,93.25807
556,93.25901
557,93.25995
558,93.26089
559,93.26181
560,93.26274
561,93.26366
562,93.26458
563,93.26549
564,93.26639
565,93.2673
566,93.26819
567,93.26909
568,93.26998
569,93.27086
570,93.27174
571,93.27262
572,93.27349
573,93.27436
574,93.27522
575,93.27608
576,93.27694
577,93.27779
578,93.27864
579,93.27948
580,93.28032
581,93.28116
582,93.28199
583,93.28282
584,93.28364
585,93.28446
586,93.28528
587,93.28609
588,93.2869
589,93.28771
590,93.28851
591,93.28931
592,93.2901
593,93.29089
594,93.29168
595,93.29247
596,93.29325
597,93.29402
598,93.2948
599,93.29557
600,93.29633
601,93.2971
602,93.29786
603,93.29861
604,93.29937
605,93.30012
606,93.30086
607,93.30161
608,93.30235
609,93.30309
610,93.30382
611,93.30455
612,93.30528
613,93.306
614,93.30672
615,93.30744
616,93.30816
617,93.30887
618,93.30958
619,93.31029
620,93.31099
621,93.31169
622,93.31239
623,93.31308
624,93.31378
625,93.31447
626,93.31515
627,93.31584
628,93.31652
629,93.31719
630,93.31787
631,93.31854
632,93.31921
633,93.31988
634,93.32054
635,93.32121
636,93.32187
637,93.32252
638,93.32318
639,93.32383
640,93.32448
641,93.32512
642,93.32577
643,93.32641
644,93.32705
645,93.32768
646,93.32832
647,93.32895
648,93.32958
649,93.3302
650,93.33083
651,93.33145
652,93.33207
653,93.33269
654,93.3333
655,93.33391
656,93.33452
657,93.33513
658,93.33574
659,93.33634
660,93.33694
661,93.33754
662,93.33814
663,93.33873
664,93.33933
665,93.33992
666,93.3405
667,93.34109
668,93.34167
669,93.34226
670,93.34284
671,93.34341
672,93.34399
673,93.34456
674,93.34513
675,93.3457
676,93.34627
677,93.34684
678,93.3474
679,93.34796
680,93.34852
681,93.34908
682,93.34963
683,93.35019
684,93.35074
685,93.35129
686,93.35184
687,93.35238
688,93.35293
689,93.35347
690,93.35401
691,93.35455
692,93.35509
693,93.35562
694,93.35615
695,93.35669
696,93.35722
697,93.35774
698,93.35827
699,93.3588
700,93.35932
701,93.35984
702,93.36036
703,93.36088
704,93.36139
705,93.36191
706,93.36242
707,93.36293
708,93.36344
709,93.36395
710,93.36446
711,93.36496
712,93.36546
713,93.36597
714,93.36647
715,93.36696
716,93.36746
717,93.36796
718,93.36845
719,93.36894
720,93.36943
721,93.36992
722,93.37041
723,93.3709
724,93.37138
725,93.37187
726,93.37235
727,93.37283
728,93.37331
729,93.37379
730,93.37426
731,93.37474
732,93.37521
733,93.37568
734,93.37615
735,93.37662
736,93.37709
737,93.37756
738,93.37802
739,93.37849
740,93.37895
741,93.37941
742,93.37987
743,93.38033
744,93.38079
745,93.38124
746,93.3817
747,93.38215
748,93.3826
749,93.38305
750,93.3835
751,93.38395
752,93.3844
753,93.38485
754,93.38529
755,93.38573
756,93.38618
757,93.38662
758,93.38706
759,93.3875
760,93.38793
761,93.38837
762,93.38881
763,93.38924
764,93.38967
765,93.3901
766,93.39053
767,93.39096
768,93.39139
769,93.39182
770,93.39225
771,93.39267
772,93.3931
773,93.39352
774,93.39394
775,93.39436
776,93.39478
777,93.3952
778,93.39562
779,93.39603
780,93.39645
781,93.39686
782,93.39728
783,93.39769
784,93.3981
785,93.39851
786,93.39892
787,93.39933
788,93.39974
789,93.40014
790,93.40055
791,93.40095
792,93.40136
793,93.40176
794,93.40216
795,93.40256
796,93.40296
797,93.40336
798,93.40376
799,93.40415
800,93.40455
801,93.40495
802,93.40534
803,93.40573
804,93.40612
805,93.40652
806,93.40691
807,93.4073
808,93.40769
809,93.40807
810,93.40846
811,93.40885
812,93.40923
813,93.40962
814,93.41
815,93.41038
816,93.41076
817,93.41115
818,93.41153
819,93.4119
820,93.41228
821,93.41266
822,93.41304
823,93.41341
824,93.41379
825,93.41416
826,93.41454
827,93.41491
828,93.41528
829,93.41565
830,93.41603
831,93.4164
832,93.41676
833,93.41713
834,93.4175
835,93.41787
836,93.41823
837,93.4186
838,93.41896
839,93.41933
840,93.41969
841,93.42005
842,93.42042
843,93.42078
844,93.42114
845,93.4215
846,93.42185
847,93.42221
848,93.42257
849,93.42293
850,93.42328
851,93.42364
852,93.42399
853,93.42435
854,93.4247
855,93.42505
856,93.42541
857,93.42576
858,93.42611
859,93.42646
860,93.42681
861,93.42716
862,93.42751
863,93.42785
864,93.4282
865,93.42855
866,93.42889
867,93.42924
868,93.42958
869,93.42993
870,93.43027
871,93.43061
872,93.43095
873,93.4313
874,93.43164
875,93.43198
876,93.43232
877,93.43266
878,93.43299
879,93.43333
880,93.43367
881,93.43401
882,93.43434
883,93.43468
884,93.43501
885,93.43535
886,93.43568
887,93.43601
888,93.43635
889,93.43668
890,93.43701
891,93.43734
892,93.43767
893,93.438
894,93.43833
895,93.43866
896,93.43899
897,93.43932
898,93.43965
899,93.43997
900,93.4403
901,93.44063
902,93.44095
903,93.44128
904,93.4416
905,93.44193
906,93.44225
907,93.44257
908,93.4429
909,93.44322
910,93.44354
911,93.44386
912,93.44418
913,93.4445
914,93.44482
915,93.44514
916,93.44546
917,93.44578
918,93.4461
919,93.44641
920,93.44673
921,93.44705
922,93.44736
923,93.44768
924,93.44799
925,93.44831
926,93.44862
927,93.44894
928,93.44925
929,93.44956
930,93.44988
931,93.45019
932,93.4505
933,93.45081
934,93.45112
935,93.45143
936,93.45174
937,93.45205
938,93.45236
939,93.45267
940,93.45298
941,93.45329
942,93.4536
943,93.4539
944,93.45421
945,93.45452
946,93.45482
947,93.45513
948,93.45543
949,93.45574
950,93.45604
951,93.45635
952,93.45665
953,93.45695
954,93.45726
955,93.45756
956,93.45786
957,93.45817
958,93.45847
959,93.45877
960,93.45907
961,93.45937
962,93.45967
963,93.45997
964,93.46027
965,93.46057
966,93.46087
967,93.46117
968,93.46146
969,93.46176
970,93.46206
971,93.46236
972,93.46265
973,93.46295
974,93.46325
975,93.46354
976,93.46384
977,93.46413
978,93.46443
979,93.46472
980,93.46502
981,93.46531
982,93.46561
983,93.4659
984,93.46619
985,93.46649
986,93.46678
987,93.46707
988,93.46736
989,93.46765
990,93.46794
991,93.46824
992,93.46853
993,93.46882
994,93.46911
995,93.4694
996,93.46969
997,93.46998
998,93.47026
999,93.47055
1000,93.47084
1001,93.47113
1002,93.47142
1003,93.47171
1004,93.47199
1005,93.47228
1006,93.47257
1007,93.47285
1008,93.47314
1009,93.47343
1010,93.47371
1011,93.474
1012,93.47428
1013,93.47457
1014,93.47485
1015,93.47514
1016,93.47542
1017,93.47571
1018,93.47599
1019,93.47627
1020,93.47656
1021,93.47684
1022,93.47712
1023,93.47741
1024,93.47769
1025,93.47797
1026,93.47825
1027,93.47853
1028,93.47882
1029,93.4791
1030,93.47938
1031,93.47966
1032,93.47994
1033,93.48022
1034,93.4805
1035,93.48078
1036,93.48106
1037,93.48134
1038,93.48162
1039,93.4819
1040,93.48218
1041,93.48245
1042,93.48273
1043,93.48301
1044,93.48329
1045,93.48357
1046,93.48384
1047,93.48412
1048,93.4844
1049,93.48468
1050,93.48495
1051,93.48523
1052,93.48551
1053,93.48578
1054,93.48606
1055,93.48633
1056,93.48661
1057,93.48689
1058,93.48716
1059,93.48744
1060,93.48771
1061,93.48799
1062,93.48826
1063,93.48853
1064,93.48881
1065,93.48908
1066,93.48936
1067,93.48963
1068,93.4899
1069,93.49018
1070,93.49045
1071,93.49072
1072,93.491
1073,93.49127
1074,93.49154
1075,93.49181
1076,93.49209
1077,93.49236
1078,93.49263
1079,93.4929
1080,93.49317
1081,93.49344
1082,93.49372
1083,93.49399
1084,93.49426
1085,93.49453
1086,93.4948
1087,93.49507
1088,93.49534
1089,93.49561
1090,93.49588
1091,93.49615
1092,93.49642
1093,93.49669
1094,93.49696
1095,93.49723
1096,93.4975
1097,93.49777
1098,93.49804
1099,93.4983
1100,93.49857
1101,93.49884
1102,93.49911
1103,93.49938
1104,93.49965
1105,93.49991
1106,93.50018
1107,93.50045
1108,93.50072
1109,93.50099
1110,93.50125
1111,93.50152
1112,93.50179
1113,93.50205
1114,93.50232
1115,93.50259
1116,93.50285
1117,93.50312
1118,93.50339
1119,93.50365
1120,93.50392
1121,93.50419
1122,93.50445
1123,93.50472
1124,93.50498
1125,93.50525
1126,93.50552
1127,93.50578
1128,93.50605
1129,93.50631
1130,93.50658
1131,93.50747
1132,93.50773
1133,93.50799
1134,93.50826
1135,93.50852
1136,93.50879
1137,93.50905
1138,93.50931
1139,93.50958
1140,93.50984
1141,93.5101
1142,93.51037
1143,93.51063
1144,93.51089
1145,93.51116
1146,93.51142
1147,93.51168
1148,93.51194
1149,93.51221
1150,93.51247
1151,93.51273
1152,93.51299
1153,93.51326
1154,93.51352
1155,93.51378
1156,93.51404
1157,93.5143
1158,93.51457
1159,93.51483
1160,93.51509
1161,93.51535
1162,93.51561
1163,93.51587
1164,93.51614
1165,93.5164
1166,93.51666
1167,93.51692
1168,93.51718
1169,93.51744
1170,93.5177
1171,93.51796
1172,93.51822
1173,93.51848
1174,93.51874
1175,93.51901
1176,93.51927
1177,93.51953
1178,93.51979
1179,93.52005
1180,93.52031
1181,93.52057
1182,93.52083
1183,93.52109
1184,93.52135
1185,93.52161
1186,93.52187
1187,93.52213
1188,93.52239
1189,93.52265
1190,93.52291
1191,93.52317
1192,93.52343
1193,93.52369
1194,93.52394
1195,93.5242
1196,93.52446
1197,93.52472
1198,93.52498
1199,93.52524
1200,93.5255
1201,93.52576
1202,93.52602
1203,93.52628
1204,93.52654
1205,93.5268
1206,93.52705
1207,93.52731
1208,93.52757
1209,93.52783
1210,93.52809
1211,93.52835
1212,93.52861
1213,93.52886
1214,93.52912
1215,93.52938
1216,93.52964
1217,93.5299
1218,93.53016
1219,93.53042
1220,93.53067
1221,93.53093
1222,93.53119
1223,93.53145
1224,93.53171
1225,93.53197
1226,93.53222
1227,93.53248
1228,93.53274
1229,93.533
1230,93.53326
1231,93.53351
1232,93.53377
1233,93.53403
1234,93.53429
1235,93.53455
1236,93.5348
1237,93.53506
1238,93.53532
1239,93.53558
1240,93.53583
1241,93.53609
1242,93.53635
1243,93.53661
1244,93.53687
1245,93.53712
1246,93.53738
1247,93.53764
1248,93.5379
1249,93.53815
1250,93.53841
1251,93.53867
1252,93.53893
1253,93.53918
1254,93.53944
1255,93.5397
1256,93.53996
1257,93.54021
1258,93.54047
1259,93.54073
1260,93.54099
1261,93.54124
1262,93.5415
1263,93.54176
1264,93.54202
1265,93.54227
1266,93.54253
1267,93.54279
1268,93.54305
1269,93.5433
1270,93.54356
1271,93.54382
1272,93.54408
1273,93.54433
1274,93.54459
1275,93.54485
1276,93.54511
1277,93.54536
1278,93.54562
1279,93.54588
1280,93.54613
1281,93.54639
1282,93.54665
1283,93.54691
1284,93.54716
1285,93.54742
1286,93.54768
1287,93.54794
1288,93.54819
1289,93.54845
1290,93.54871
1291,93.54897
1292,93.54922
1293,93.54948
1294,93.54974
1295,93.55
1296,93.55025
1297,93.55051
1298,93.55077
1299,93.55103
1300,93.55128
1301,93.55154
1302,93.5518
1303,93.55206
1304,93.55231
1305,93.55257
1306,93.55283
1307,93.55309
1308,93.55334
1309,93.5536
1310,93.55386
1311,93.55412
1312,93.55437
1313,93.55463
1314,93.55489
1315,93.55515
1316,93.55541
1317,93.55566
1318,93.55592
1319,93.55618
1320,93.55644
1321,93.55669
1322,93.55695
1323,93.55721
1324,93.55747
1325,93.55773
1326,93.55798
1327,93.55824
1328,93.5585
1329,93.55876
1330,93.55902
1331,93.55927
1332,93.55953
1333,93.55979
1334,93.56005
1335,93.56031
1336,93.56057
1337,93.56082
1338,93.56108
1339,93.56134
1340,93.5616
1341,93.56186
1342,93.56212
1343,93.56237
1344,93.56263
1345,93.56289
1346,93.56315
1347,93.56341
1348,93.56367
1349,93.56393
1350,93.53812
1351,93.5376
1352,93.53332
1353,93.53824
1354,93.49568
1355,93.4962
1356,93.45602
1357,93.38727
1358,93.34463
1359,93.29515
1360,93.32734
1361,93.24253
1362,93.15832
1363,93.09115
1364,92.99358
1365,92.85685
1366,92.72572
1367,92.53579
1368,92.30576
1369,91.93777
1370,91.52343
1371,90.95563
1372,90.2426
1373,89.4135
1374,88.46251
1375,87.53495
1376,86.49024
1377,85.55213
1378,84.69206
1379,83.89786
1380,83.40325
1381,83.16447
1382,82.88008
1383,82.76284
1384,82.794
1385,82.95406
1386,83.23933
1387,83.61806
1388,84.00672
1389,84.38962
1390,84.81883
1391,85.26082
1392,85.7811
1393,86.22419
1394,86.71152
1395,87.25587
1396,87.53799
1397,87.99557
1398,88.33625
1399,88.72366
1400,89.21717
1401,89.39976
1402,89.73641
1403,89.9681
1404,90.28258
1405,90.54855
1406,90.7526
1407,90.96116
1408,91.18127
1409,91.36431
1410,91.51207
1411,91.69322
1412,91.84291
1413,91.98936
1414,92.12903
1415,92.24143
1416,92.32783
1417,92.44244
1418,92.56238
1419,92.63822
1420,92.70507
1421,92.80769
1422,92.89315
1423,92.97705
1424,93.05246
1425,93.11132
1426,93.1897
1427,93.23451
1428,93.28755
1429,93.34075
1430,93.38571
1431,93.45111
1432,93.5163
1433,93.56917
1434,93.58607
1435,93.58633
1436,93.5866
1437,93.58686
1438,93.58712
1439,93.58739
1440,93.58765
1441,93.58791
1442,93.58818
1443,93.58844
1444,93.5887
1445,93.58897
1446,93.58923
1447,93.58949
1448,93.58976
1449,93.59002
1450,93.59029
1451,93.59055
1452,93.59081
1453,93.59108
1454,93.59134
1455,93.59161
1456,93.59187
1457,93.59213
1458,93.5924
1459,93.59266
1460,93.59293
1461,93.59319
1462,93.59346
1463,93.59372
1464,93.59399
1465,93.59425
1466,93.59452
1467,93.59478
1468,93.59505
1469,93.59531
1470,93.59558
1471,93.59584
1472,93.59611
1473,93.59637
1474,93.59664
1475,93.59691
1476,93.59717
1477,93.59744
1478,93.5977
1479,93.59797
1480,93.59823
1481,93.5985
1482,93.59877
1483,93.59903
1484,93.5993
1485,93.59957
1486,93.59983
1487,93.6001
1488,93.60037
1489,93.60063
1490,93.6009
1491,93.60117
1492,93.60143
1493,93.6017
1494,93.60197
1495,93.60223
1496,93.6025
1497,93.60277
1498,93.60304
1499,93.6033
1500,93.60357
1501,93.60384
1502,93.60411
1503,93.60438
1504,93.60464
1505,93.60491
1506,93.60518
1507,93.60545
1508,93.60572
1509,93.60598
1510,93.60625
1511,93.60652
1512,93.60679
1513,93.60706
1514,93.60733
1515,93.6076
1516,93.60787
1517,93.60814
1518,93.6084
1519,93.60867
1520,93.60894
1521,93.60921
1522,93.60948
1523,93.60975
1524,93.61002
1525,93.61029
1526,93.61056
1527,93.61083
1528,93.6111
1529,93.61137
1530,93.61164
1531,93.61191
1532,93.61218
1533,93.61245
1534,93.61272
1535,93.61299
1536,93.61326
1537,93.61354
1538,93.61381
1539,93.61408
1540,93.61435
1541,93.61462
1542,93.61489
1543,93.61516
1544,93.61543
1545,93.61571
1546,93.61598
1547,93.61625
1548,93.61652
1549,93.61679
1550,93.61706
1551,93.61734
1552,93.61761
1553,93.61788
1554,93.61815
1555,93.61843
1556,93.6187
1557,93.61897
1558,93.61924
1559,93.61952
1560,93.61979
1561,93.62006
1562,93.62034
1563,93.62061
1564,93.62088
1565,93.62116
1566,93.62143
1567,93.6217
1568,93.62198
1569,93.62225
1570,93.62253
1571,93.6228
1572,93.62307
1573,93.62335
1574,93.62362
1575,93.6239
1576,93.62417
1577,93.62445
1578,93.62472
1579,93.625
1580,93.62527
1581,93.62555
1582,93.62582
1583,93.6261
1584,93.62637
1585,93.62665
1586,93.62692
1587,93.6272
1588,93.62747
1589,93.62775
1590,93.62803
1591,93.6283
1592,93.62858
1593,93.62885
1594,93.62913
1595,93.62941
1596,93.62968
1597,93.62996
1598,93.63024
1599,93.63051
1600,93.63079
1601,93.63107
1602,93.63135
1603,93.63162
1604,93.6319
1605,93.63218
1606,93.63246
1607,93.63273
1608,93.63301
1609,93.63329
1610,93.63357
1611,93.63385
1612,93.63412
1613,93.6344
1614,93.63468
1615,93.63496
1616,93.63524
1617,93.63552
1618,93.6358
1619,93.63608
1620,93.63635
1621,93.63663
1622,93.63691
1623,93.63719
1624,93.63747
1625,93.63775
1626,93.63803
1627,93.63831
1628,93.63859
1629,93.63887
1630,93.63915
1631,93.63943
1632,93.63971
1633,93.63999
1634,93.64027
1635,93.64055
1636,93.64084
1637,93.64112
1638,93.6414
1639,93.64168
1640,93.64196
1641,93.64224
1642,93.64252
1643,93.6428
1644,93.64309
1645,93.64337
1646,93.64365
1647,93.64393
1648,93.64421
1649,93.6445
1650,93.64478
1651,93.64506
1652,93.64534
1653,93.64563
1654,93.64591
1655,93.64619
1656,93.64648
1657,93.64676
1658,93.64704
1659,93.64733
1660,93.64761
1661,93.64789
1662,93.64818
1663,93.64846
1664,93.64875
1665,93.64903
1666,93.64931
1667,93.6496
1668,93.64988
1669,93.65017
1670,93.65045
1671,93.65074
1672,93.65102
1673,93.65131
1674,93.65159
1675,93.65188
1676,93.65216
1677,93.65245
1678,93.65274
1679,93.65302
1680,93.65331
1681,93.65359
1682,93.65388
1683,93.65417
1684,93.65445
1685,93.65474
1686,93.65503
1687,93.65531
1688,93.6556
1689,93.65589
1690,93.65617
1691,93.65646
1692,93.65675
1693,93.65704
1694,93.65732
1695,93.65761
1696,93.6579
1697,93.65819
1698,93.65847
1699,93.65876
1700,93.65905
1701,93.65934
1702,93.65963
1703,93.65992
1704,93.66021
1705,93.66049
1706,93.66078
1707,93.66107
1708,93.66136
1709,93.66165
1710,93.66194
1711,93.66223
1712,93.66252
1713,93.66281
1714,93.6631
1715,93.66339
1716,93.66368
1717,93.66397
1718,93.66426
1719,93.66455
1720,93.66484
1721,93.66513
1722,93.66543
1723,93.66572
1724,93.66601
1725,93.6663
1726,93.66659
1727,93.66688
1728,93.66717
1729,93.66747
1730,93.66776
1731,93.66805
1732,93.66834
1733,93.66864
1734,93.66893
1735,93.66922
1736,93.66951
1737,93.66981
1738,93.6701
1739,93.67039
1740,93.67069
1741,93.67098
1742,93.67127
1743,93.67157
1744,93.67186
1745,93.67215
1746,93.67245
1747,93.67274
1748,93.67304
1749,93.67333
1750,93.67363
1751,93.67392
1752,93.67422
1753,93.67451
1754,93.67481
1755,93.6751
1756,93.6754
1757,93.67569
1758,93.67599
1759,93.67628
1760,93.67658
1761,93.67688
1762,93.67717
1763,93.67747
1764,93.67776
1765,93.67806
1766,93.67836
1767,93.67865
1768,93.67895
1769,93.67925
1770,93.67955
1771,93.67984
1772,93.68014
1773,93.68044
1774,93.68074
1775,93.68103
1776,93.68133
1777,93.68163
1778,93.68193
1779,93.68223
1780,93.68253
1781,93.68282
1782,93.68312
1783,93.68342
1784,93.68372
1785,93.68402
1786,93.68432
1787,93.68462
1788,93.68492
1789,93.68522
1790,93.68552
1791,93.68582
1792,93.68612
1793,93.68642
1794,93.68672
1795,93.68702
1796,93.68732
1797,93.68762
1798,93.68792
1799,93.68822
1800,93.68852
1801,93.68883
1802,93.68913
1803,93.68943
1804,93.68973
1805,93.69003
1806,93.69033
1807,93.69064
1808,93.69094
1809,93.69124
1810,93.69154
1811,93.69185
1812,93.69215
1813,93.69245
1814,93.69276
1815,93.69306
1816,93.69336
1817,93.69367
1818,93.69397
1819,93.69427
1820,93.69458
1821,93.69488
1822,93.69519
1823,93.69549
1824,93.69579
1825,93.6961
1826,93.6964
1827,93.69671
1828,93.69701
1829,93.69732
1830,93.69762
1831,93.69793
1832,93.69824
1833,93.69854
1834,93.69885
1835,93.69915
1836,93.69946
1837,93.69977
1838,93.70007
1839,93.70038
1840,93.70069
1841,93.70099
1842,93.7013
1843,93.70161
1844,93.70191
1845,93.70222
1846,93.70253
1847,93.70284
1848,93.70314
1849,93.70345
1850,93.70376
1851,93.70407
1852,93.70438
1853,93.70469
1854,93.705
1855,93.7053
1856,93.70561
1857,93.70592
1858,93.70623
1859,93.70654
1860,93.70685
1861,93.70716
1862,93.70747
1863,93.70778
1864,93.70809
1865,93.7084
1866,93.70871
1867,93.70902
1868,93.70933
1869,93.70964
1870,93.70995
1871,93.71027
1872,93.71058
1873,93.71089
1874,93.7112
1875,93.71151
1876,93.71182
1877,93.71214
1878,93.71245
1879,93.71276
1880,93.71307
1881,93.71338
1882,93.7137
1883,93.71401
1884,93.71432
1885,93.71464
1886,93.71495
1887,93.71526
1888,93.71558
1889,93.71589
1890,93.7162
1891,93.71652
1892,93.71683
1893,93.71715
1894,93.71746
1895,93.71778
1896,93.71809
1897,93.71841
1898,93.71872
1899,93.71904
1900,93.71935
1901,93.71967
1902,93.71998
1903,93.7203
1904,93.72061
1905,93.72093
1906,93.72125
1907,93.72156
1908,93.72188
1909,93.7222
1910,93.72251
1911,93.72283
1912,93.72315
1913,93.72347
1914,93.72378
1915,93.7241
1916,93.72442
1917,93.72474
1918,93.72505
1919,93.72537
1920,93.72569
1921,93.72601
1922,93.72633
1923,93.72665
1924,93.72697
1925,93.72728
1926,93.7276
1927,93.72792
1928,93.72824
1929,93.72856
1930,93.72888
1931,93.7292
1932,93.72952
1933,93.72984
1934,93.73016
1935,93.73048
1936,93.7308
1937,93.73113
1938,93.73145
1939,93.73177
1940,93.73209
1941,93.73241
1942,93.73273
1943,93.73305
1944,93.73338
1945,93.7337
1946,93.73402
1947,93.73434
1948,93.73467
1949,93.73499
1950,93.73531
1951,93.73563
1952,93.73596
1953,93.73628
1954,93.7366
1955,93.73693
1956,93.73725
1957,93.73758
1958,93.7379
1959,93.73822
1960,93.73855
1961,93.73887
1962,93.7392
1963,93.73952
1964,93.73985
1965,93.74017
1966,93.7405
1967,93.74082
1968,93.74115
1969,93.74148
1970,93.7418
1971,93.74213
1972,93.74245
1973,93.74278
1974,93.74311
1975,93.74343
1976,93.74376
1977,93.74409
1978,93.74441
1979,93.74474
1980,93.74507
1981,93.7454
1982,93.74572
1983,93.74605
1984,93.74638
1985,93.74671
1986,93.74704
1987,93.74737
1988,93.74769
1989,93.74802
1990,93.74835
1991,93.74868
1992,93.74901
1993,93.74934
1994,93.74967
1995,93.75
1996,93.75033
1997,93.75066
1998,93.75099
1999,93.75132
2000,93.75165
2001,93.75198
2002,93.75231
2003,93.75264
2004,93.75298
2005,93.75331
2006,93.75364
2007,93.75397
2008,93.7543
2009,93.75463
2010,93.75497
2011,93.7553
2012,93.75563
2013,93.75596
2014,93.7563
2015,93.75663
2016,93.75696
2017,93.7573
2018,93.75763
2019,93.75796
2020,93.7583
2021,93.75863
2022,93.75897
2023,93.7593
2024,93.75963
2025,93.75997
2026,93.7603
2027,93.77106
2028,93.74335
2029,93.71621
2030,93.70382
2031,93.6807
2032,93.65264
2033,93.62062
2034,93.59506
2035,93.57303
2036,93.54505
2037,93.51062
2038,93.49013
2039,93.48889
2040,93.47785
2041,93.46815
2042,93.43463
2043,93.41066
2044,93.38066
2045,93.33521
2046,93.31125
2047,93.29775
2048,93.2733
2049,93.25088
2050,93.24898
2051,93.22744
2052,93.20081
2053,93.19404
2054,93.18111
2055,93.1752
2056,93.1632
2057,93.17981
2058,93.16958
2059,93.14279
2060,93.11811
2061,93.11334
2062,93.08512
2063,93.08066
2064,93.10533
2065,93.1132
2066,93.09875
2067,93.10011
2068,93.10899
2069,93.12897
2070,93.11064
2071,93.10725
2072,93.11247
2073,93.11444
2074,93.11921
2075,93.13046
2076,93.14097
2077,93.1431
2078,93.12922
2079,93.13661
2080,93.14436
2081,93.16573
2082,93.16408
2083,93.16423
2084,93.16953
2085,93.16065
2086,93.16632
2087,93.15781
2088,93.15144
2089,93.14755
2090,93.1326
2091,93.12362
2092,93.10897
2093,93.1028
2094,93.0894
2095,93.08179
2096,93.08243
2097,93.04964
2098,93.03393
2099,93.03539
2100,93.02549
2101,93.03924
2102,93.00728
2103,92.97352
2104,92.9679
2105,92.94803
2106,92.93815
2107,92.92357
2108,92.90384
2109,92.89212
2110,92.86929
2111,92.83868
2112,92.81536
2113,92.7975
2114,92.78033
2115,92.75621
2116,92.74086
2117,92.71948
2118,92.68891
2119,92.67333
2120,92.65572
2121,92.61774
2122,92.58341
2123,92.55425
2124,92.50344
2125,92.4911
2126,92.44043
2127,92.40533
2128,92.36924
2129,92.32839
2130,92.29075
2131,92.21754
2132,92.16436
2133,92.12173
2134,92.07493
2135,91.9997
2136,91.92122
2137,91.87238
2138,91.77117
2139,91.69038
2140,91.59077
2141,91.48973
2142,91.39422
2143,91.29336
2144,91.21925
2145,91.06891
2146,90.94394
2147,90.8214
2148,90.68468
2149,90.58022
2150,90.46198
2151,90.31028
2152,90.19995
2153,90.07175
2154,89.953
2155,89.83106
2156,89.71997
2157,89.60478
2158,89.48767
2159,89.36844
2160,89.26555
2161,89.13572
2162,89.006
2163,88.89261
2164,88.76157
2165,88.62891
2166,88.50364
2167,88.3469
2168,88.18845
2169,88.03635
2170,87.90332
2171,87.73007
2172,87.52142
2173,87.32879
2174,87.11197
2175,86.87921
2176,86.62242
2177,86.34973
2178,86.08099
2179,85.74958
2180,85.45251
2181,85.04005
2182,84.62435
2183,84.13651
2184,83.6723
2185,83.1079
2186,82.42401
2187,81.72382
2188,80.91286
2189,80.04362
2190,79.14182
2191,78.04633
2192,76.90412
2193,75.73582
2194,74.46746
2195,73.13012
2196,71.67547
2197,70.19691
2198,68.85995
2199,67.4395
2200,65.96852
2201,64.68111
2202,63.51655
2203,62.3816
2204,61.39362
2205,60.58447
2206,59.89912
2207,59.38722
2208,58.9387
2209,58.66005
2210,58.5129
2211,58.47971
2212,58.5317
2213,58.67994
2214,58.91659
2215,59.22045
2216,59.55709
2217,59.97437
2218,60.37788
2219,60.79075
2220,61.21924
2221,61.66068
2222,62.11338
2223,62.56876
2224,62.99227
2225,63.41075
2226,63.8176
2227,64.15279
2228,64.48044
2229,64.78279
2230,65.0375
2231,65.28177
2232,65.46351
2233,65.62363
2234,65.81
2235,65.95616
2236,66.09428
2237,66.2047
2238,66.32939
2239,66.42044
2240,66.50547
2241,66.60641
2242,66.70954
2243,66.83142
2244,66.94484
2245,67.09164
2246,67.24883
2247,67.42465
2248,67.59596
2249,67.78774
2250,67.97534
2251,68.22201
2252,68.47458
2253,68.7319
2254,69.00938
2255,69.30805
2256,69.60603
2257,69.91
2258,70.23301
2259,70.57554
2260,70.91839
2261,71.27893
2262,71.63481
2263,72.0121
2264,72.38597
2265,72.78768
2266,73.17688
2267,73.56866
2268,73.96078
2269,74.35241
2270,74.73046
2271,75.12518
2272,75.49809
2273,75.8703
2274,76.23828
2275,76.59498
2276,76.95471
2277,77.32025
2278,77.68457
2279,78.03298
2280,78.37903
2281,78.73603
2282,79.04913
2283,79.38432
2284,79.70098
2285,79.96708
2286,80.27102
2287,80.57402
2288,80.86209
2289,81.15007
2290,81.42795
2291,81.70763
2292,81.97319
2293,82.23948
2294,82.46545
2295,82.69199
2296,82.95186
2297,83.20288
2298,83.42886
2299,83.65255
2300,83.88249
2301,84.11179
2302,84.31235
2303,84.52314
2304,84.73097
2305,84.91567
2306,85.11073
2307,85.31119
2308,85.50414
2309,85.67636
2310,85.84898
2311,85.99962
2312,86.12729
2313,86.28014
2314,86.42786
2315,86.57229
2316,86.7122
2317,86.87079
2318,87.00888
2319,87.12491
2320,87.21785
2321,87.34672
2322,87.47427
2323,87.56848
2324,87.66224
2325,87.76913
2326,87.87559
2327,87.94962
2328,88.0287
2329,88.11736
2330,88.18181
2331,88.25672
2332,88.32035
2333,88.37346
2334,88.47122
2335,88.5636
2336,88.60168
2337,88.66544
2338,88.70394
2339,88.75189
2340,88.82117
2341,88.87663
2342,88.9396
2343,88.97497
2344,89.01755
2345,89.067
2346,89.14033
2347,89.16716
2348,89.20687
2349,89.24459
2350,89.25991
2351,89.27196
2352,89.30116
2353,89.32462
2354,89.33576
2355,89.37893
2356,89.41389
2357,89.43851
2358,89.46349
2359,89.48293
2360,89.48622
2361,89.49491
2362,89.51062
2363,89.53958
2364,89.55471
2365,89.56532
2366,89.56558
2367,89.57182
2368,89.5991
2369,89.60458
2370,89.59256
2371,89.59921
2372,89.59702
2373,89.62032
2374,89.63156
2375,89.61667
2376,89.595
2377,89.57377
2378,89.58777
2379,89.60306
2380,89.59202
2381,89.55936
2382,89.53872
2383,89.52634
2384,89.5078
2385,89.48449
2386,89.46437
2387,89.43131
2388,89.39053
2389,89.3593
2390,89.32895
2391,89.30193
2392,89.25707
2393,89.18468
2394,89.11058
2395,89.04592
2396,88.98154
2397,88.9285
2398,88.84956
2399,88.77663
2400,88.72192
2401,88.63805
2402,88.53971
2403,88.46077
2404,88.38984
2405,88.30993
2406,88.2338
2407,88.14781
2408,88.0499
2409,87.95864
2410,87.86285
2411,87.77147
2412,87.68869
2413,87.60041
2414,87.50451
2415,87.39852
2416,87.31013
2417,87.21562
2418,87.10654
2419,87.02152
2420,86.936
2421,86.8269
2422,86.69417
2423,86.56555
2424,86.47291
2425,86.38113
2426,86.26474
2427,86.17065
2428,86.07319
2429,85.94648
2430,85.82637
2431,85.71906
2432,85.59697
2433,85.47362
2434,85.34975
2435,85.23733
2436,85.13494
2437,85.02637
2438,84.9336
2439,84.83148
2440,84.69512
2441,84.56557
2442,84.45985
2443,84.36096
2444,84.26381
2445,84.16339
2446,84.03577
2447,83.93213
2448,83.8343
2449,83.71573
2450,83.61236
2451,83.5229
2452,83.43211
2453,83.32895
2454,83.22619
2455,83.12335
2456,82.996
2457,82.88238
2458,82.77722
2459,82.68117
2460,82.5863
2461,82.48695
2462,82.38478
2463,82.27224
2464,82.14556
2465,82.02624
2466,81.9322
2467,81.81846
2468,81.67157
2469,81.53788
2470,81.41927
2471,81.30217
2472,81.17895
2473,81.04719
2474,80.90867
2475,80.78254
2476,80.65759
2477,80.50331
2478,80.3464
2479,80.21263
2480,80.07452
2481,79.91452
2482,79.75168
2483,79.61286
2484,79.46188
2485,79.29045
2486,79.12557
2487,78.94895
2488,78.77424
2489,78.58212
2490,78.41213
2491,78.22626
2492,78.05767
2493,77.87406
2494,77.69211
2495,77.49489
2496,77.29311
2497,77.10134
2498,76.90907
2499,76.70131
2500,76.49792
2501,76.27357
2502,76.04738
2503,75.82844
2504,75.60017
2505,75.34234
2506,75.09339
2507,74.85582
2508,74.6226
2509,74.39056
2510,74.15868
2511,73.87197
2512,73.61458
2513,73.35558
2514,73.1259
2515,72.85817
2516,72.56408
2517,72.29219
2518,72.02783
2519,71.74794
2520,71.48307
2521,71.17997
2522,70.91214
2523,70.66489
2524,70.38155
2525,70.10957
2526,69.83517
2527,69.55187
2528,69.26587
2529,69.00306
2530,68.7137
2531,68.42902
2532,68.10519
2533,67.81273
2534,67.49721
2535,67.18842
2536,66.90191
2537,66.62355
2538,66.34522
2539,66.06877
2540,65.79191
2541,65.51109
2542,65.22558
2543,64.91021
2544,64.61519
2545,64.29947
2546,63.99249
2547,63.6663
2548,63.35782
2549,63.0421
2550,62.73416
2551,62.4592
2552,62.18707
2553,61.94265
2554,61.69078
2555,61.4358
2556,61.20715
2557,60.92694
2558,60.6803
2559,60.43404
2560,60.19141
2561,59.9029
2562,59.63916
2563,59.34423
2564,59.04312
2565,58.74846
2566,58.48988
2567,58.22474
2568,57.95234
2569,57.71818
2570,57.47366
2571,57.24545
2572,57.05423
2573,56.8237
2574,56.62489
2575,56.38914
2576,56.16818
2577,55.98033
2578,55.75932
2579,55.53789
2580,55.3148
2581,55.08078
2582,54.83695
2583,54.66631
2584,54.47061
2585,54.25533
2586,54.06701
2587,53.8447
2588,53.64854
2589,53.40948
2590,53.16469
2591,52.95123
2592,52.78465
2593,52.59166
2594,52.4288
2595,52.23243
2596,52.05195
2597,51.8728
2598,51.7111
2599,51.47223
2600,51.32431
2600.67806,49.59547
2601.78287,49.89714
2602.88762,49.46046
2603.71616,49.32682
2604.82083,48.89033
2605.92545,48.59672
2606.75388,49.01274
2607.85841,48.58718
2608.68678,48.14904
2609.79122,48.26858
2610.89561,47.80964
2611.72387,47.93473
2612.82817,47.86556
2613.93242,47.12989
2614.76058,47.18179
2615.86474,47.15889
2616.69283,46.98921
2617.7969,46.88357
2618.90092,46.38846
2619.7289,46.45576
2620.83283,45.88457
2621.66075,45.67189
2622.76459,46.01582
2623.86838,45.38973
2624.69619,44.69967
2625.7999,44.65923
2626.90355,44.05576
2627.73125,45.16888
2628.83481,44.49123
2629.66245,44.14417
2630.76592,44.00101
2631.86934,43.91527
2632.69687,42.94591
2633.8002,42.52318
2634.90348,42.10492
2635.73091,41.68752
2636.83409,41.54413
2637.66145,41.69249
2638.76455,41.3239
2639.8676,40.88346
2640.69485,40.86397
2641.79781,40.75339
2642.90071,39.94721
2643.72786,39.52054
2644.83068,39.31716
2645.65775,39.14679
2646.76048,38.95663
2647.86315,38.65024
2648.69012,37.71033
2649.79271,37.60646
2650.89524,36.81736
2651.72211,36.46111
2652.82455,36.06246
2653.65134,34.97465
2654.75369,34.30288
2655.85599,33.53904
2656.68268,32.93965
2657.78489,32.69889
2658.88705,31.53344
2659.71363,31.0165
2660.8157,30.634
2661.64221,29.70282
2662.74419,29.28182
2663.84611,27.92847
2664.67252,27.78145
2665.77435,26.7499
2666.87613,25.1175
2667.70244,24.13377
2668.80413,23.315
2669.90576,21.66676
2670.73196,21.31402
2671.8335,18.74455
2672.65963,18.73767
2673.76108,18.09747
2674.86249,15.61451
2675.6885,15.70855
2676.78982,13.42612
2677.89108,12.58668
2678.71699,11.17358
2679.81815,9.76815
2680.644,9.28323
2681.74507,7.96251
2682.8461,6.80864
2683.67183,6.69316
2684.77276,5.33134
2685.87365,4.78021
2686.69927,4.67942
2687.80006,4.02818
2688.9008,2.9161
2689.72631,2.63504
2690.82696,2.18244
2691.65241,1.45584
2692.75296,1.5895
2693.85346,0.70224
2694.6788,0.46909
2695.77921,0.72616
2696.87957,0.19452
2697.7048,0.77044
2698.80506,1.5714
2699.63023,0.43284
2700.7304,0.1915
2701.83052,0.21486
2702.65557,0.08164
2703.7556,0.04057
2704.85557,0.0657
2705.68052,0.35392
2706.7804,0.681
2707.88023,0.88224
2708.70507,0.48182
2709.80481,0.28238
2710.62957,0.09644
2711.72922,0.29977
2712.82881,0.10913
2713.65347,0.05566
2714.75297,0.59293
2715.85241,0.5092
2716.67696,0.0445
2717.77632,0.33743
2718.87562,0.06794
2719.70006,0.27169
2720.79927,0.50124
2721.62364,0.33179
2722.72275,0.66477
2723.82181,0.16298
2724.64607,0.00489
2725.74504,0.33282
2726.84396,0.24715
2727.66811,0.05673
2728.76693,0.1392
2729.8657,0.53977
2730.68974,0.80022
2731.78842,0.48254
2732.88704,0.25884
2733.71098,0.303
2734.80951,0.08692
2735.63337,0.12329
2736.7318,0.66865
2737.83019,0.1744
2738.65394,0.09821
2739.75223,0.12872
2740.85047,0.28022
2741.67411,0.30103
2742.77225,0.28454
2743.87034,0.3426
2744.69387,0.42406
2745.79187,0.04992
2746.61533,0.49615
2747.71323,0.3043
2748.81108,0.08458
2749.63443,0.7617
2750.73218,0.30956
2751.82988,0.90171
2752.65312,0.77681
2753.75073,1.10973
2754.84829,1.13717
2755.67141,1.11929
2756.76887,0.81118
2757.86628,0.86622
2758.6893,1.02441
2759.78661,0.8981
2760.60956,0.58949
2761.70678,1.10376
2762.80394,1.14543
2763.62678,1.17528
2764.72385,1.62993
2765.82086,1.21555
2766.64359,0.64064
2767.74051,0.73373
2768.83737,0.60964
2769.65999,0.54445
2770.75676,0.7928
2771.85348,0.39279
2772.67598,0.55775
2773.77261,0.83088
2774.86918,1.33696
2775.69157,1.11514
2776.78804,0.67074
2777.61036,0.79947
2778.70675,0.78891
2779.80307,0.45755
2780.62528,0.91774
2781.72151,0.0605
2782.81769,0.27064
2783.63979,0.91968
2784.73587,0.99659
2785.8319,0.84178
2786.65388,0.52076
2787.74981,0.53441
2788.84569,0.90569
2789.66757,0.43178
2790.76335,0.70949
2791.85908,0.80569
2792.68084,0.76246
2793.77647,0.90089
2794.59816,0.83254
2795.6937,0.53747
2796.78918,0.64642
2797.61076,0.4621
2798.70615,0.82099
2799.80148,0.17787
2800.62295,0.43354
2801.71819,0.38876
2802.81337,0.29488
2803.63472,0.30337
2804.72981,0.80804
2805.82484,0.51259
2806.64608,0.16022
2807.74102,0.47525
2808.8359,0.57411
2809.65703,0.43763
2810.75181,0.35865
2811.84655,0.12965
2812.66756,0.08604
2813.7622,0.16423
2814.85678,0.14311
2815.67768,0.16677
2816.77216,0.08853
2817.59299,0.84913
2818.68738,1.05011
2819.78171,1.76475
2820.60243,2.03743
2821.69667,1.96429
2822.79085,1.82596
2823.61145,1.79632
2824.70554,2.19584
2825.79957,2.92975
2826.62006,2.49567
2827.71399,3.01429
2828.80787,2.65733
2829.62825,3.10301
2830.72203,3.63214
2831.81576,3.19289
2832.63602,3.2115
2833.72965,3.98071
2834.82323,4.71524
2835.64337,4.67304
2836.73685,5.27786
2837.83028,5.77963
2838.65031,5.88991
2839.74364,5.96491
2840.83691,6.7254
2841.65683,7.17515
2842.75,7.61978
2843.84312,8.20048
2844.66293,8.32569
2845.75595,8.53487
2846.84892,8.96433
2847.66861,10.07268
2848.76148,10.30159
2849.58109,10.72878
2850.67386,10.95315
2851.76658,11.68744
2852.58608,12.52148
2853.6787,12.6252
2854.77127,13.35151
2855.59066,14.08713
2856.68312,14.06869
2857.77553,15.4463
2858.59481,15.58142
2859.68712,16.96357
2860.77938,17.4602
2861.59853,18.019
2862.6907,18.51072
2863.7828,19.6524
2864.60184,19.94734
2865.69385,19.94881
2866.7858,20.73133
2867.60473,21.15654
2868.69658,22.3209
2869.78838,23.04435
2870.60719,23.85136
2871.69889,24.58893
2872.79053,24.92332
2873.60923,25.13998
2874.70077,26.09926
2875.79226,26.79568
2876.61084,27.32344
2877.70223,28.23866
2878.79357,29.23628
2879.61203,29.44247
2880.70327,30.26628
2881.79445,30.93086
2882.6128,31.33029
2883.70388,32.27975
2884.79491,33.238
2885.61314,33.61002
2886.70407,34.20135
2887.79494,34.38603
2888.61306,35.06592
2889.70383,35.60424
2890.79455,35.91444
2891.61255,36.40373
2892.70317,36.81474
2893.79373,37.70938
2894.61161,37.6212
2895.70208,38.19351
2896.79248,38.68473
2897.61025,39.17726
2898.70056,39.60642
2899.79081,40.29507
2900.60846,40.95951
2901.69861,41.51677
2902.78871,42.04156
2903.60624,42.53481
2904.69624,43.17299
2905.78618,43.7882
2906.6036,43.97679
2907.69344,44.83471
2908.78322,44.83022
2909.60052,45.42008
2910.69021,46.20532
2911.77983,46.52768
2912.59702,46.50159
2913.68655,47.19586
2914.77602,47.84719
2915.59309,47.82848
2916.68246,48.44704
2917.77177,48.43344
2918.58872,49.42402
2919.67794,49.53861
2920.7671,50.24422
2921.58393,50.90202
2922.67299,50.98772
2923.76199,51.48142
2924.57871,52.17414
2925.66761,52.20879
2926.75645,52.25552
2927.57305,52.57338
2928.6618,53.14949
2929.75049,53.78422
2930.56696,54.01079
2931.65555,54.15393
2932.74409,54.06554
2933.56045,55.04153
2934.64888,54.44755
2935.73725,54.7556
2936.5535,55.26025
2937.64177,56.02304
2938.72999,55.74963
2939.81815,56.17735
2940.63423,56.17553
2941.72229,56.3871
2942.81029,56.82372
2943.62625,57.20993
2944.71415,57.2201
2945.802,57.20676
2946.61784,58.3227
2947.70559,58.21741
2948.79327,58.64467
2949.609,59.02827
2950.69659,58.88083
2951.78411,59.49015
2952.59972,59.8767
2953.68715,60.13674
2954.77452,60.78282
2955.59001,60.67071
2956.67728,60.78328
2957.76449,60.7666
2958.57986,61.3081
2959.66697,61.46032
2960.75402,61.20985
2961.56927,61.81885
2962.65622,62.15841
2963.74312,62.37777
2964.55825,62.05868
2965.64504,63.23249
2966.73178,63.49138
2967.54679,62.92432
2968.63342,62.99551
2969.72,63.82598
2970.80652,63.90907
2971.62137,63.5876
2972.70779,64.47923
2973.79414,64.04018
2974.60887,64.79957
2975.69513,64.8795
2976.78133,65.09624
2977.59594,64.94441
2978.68204,64.88713
2979.76808,65.08978
2980.58257,65.77008
2981.66851,65.56632
2982.75439,65.67246
2983.56876,65.89637
2984.65454,66.18984
2985.74026,66.34395
2986.55451,66.29693
2987.64013,66.21737
2988.72568,66.56706
2989.53982,66.9001
2990.62527,66.87588
2991.71067,66.95965
2992.79601,67.01836
2993.60998,67.84208
2994.69522,67.97145
2995.7804,68.13967
2996.59425,68.21409
2997.67932,68.65113
2998.76434,68.39172
2999.57807,67.89766
3000.66299,68.65378
3001.74785,69.19429
3002.56145,69.25452
3003.64621,69.60121
3004.73091,69.47396
3005.54439,69.13291
3006.62899,69.69722
3007.71352,70.13086
3008.798,69.67332
3009.61132,69.94951
3010.6957,69.56834
3011.78001,69.88778
3012.59321,70.31901
3013.67743,69.92421
3014.76158,70.33939
3015.57466,70.51275
3016.65871,70.65396
3017.74271,70.41305
3018.55566,70.55988
3019.63955,70.61309
3020.72339,70.71598
3021.53622,70.68656
3022.61995,70.66423
3023.70362,70.69936
3024.78723,71.45693
3025.5999,71.39923
3026.68341,71.23918
3027.76686,71.0416
3028.5794,71.67697
3029.66275,71.7912
3030.74603,71.83825
3031.55846,71.75759
3032.64164,71.63185
3033.72477,72.29348
3034.53707,71.71763
3035.62009,71.94883
3036.70305,72.51093
3037.78595,72.77873
3038.59809,72.83159
3039.68089,72.97326
3040.76363,73.70141
3041.57564,73.04357
3042.65828,72.89134
3043.74085,72.8007
3044.55275,73.17209
3045.63522,73.00719
3046.71763,73.26768
3047.5294,73.30263
3048.61171,73.48624
3049.69396,74.25157
3050.77615,74.12881
3051.58775,73.83472
3052.66984,74.02126
3053.75186,74.9399
3054.56334,74.11289
3055.64527,74.75179
3056.72713,73.78464
3057.53849,74.86662
3058.62024,74.81225
3059.70194,74.93699
3060.51318,74.78968
3061.59477,74.84542
3062.6763,74.86667
3063.75778,75.16041
3064.56885,75.19925
3065.65022,75.31463
3066.73153,74.98146
3067.54247,75.95009
3068.62368,75.08567
3069.70482,75.1912
3070.51564,75.24971
3071.59668,74.61935
3072.67766,75.54898
3073.75858,75.19301
3074.56924,75.12732
3075.65005,75.13785
3076.73081,75.71633
3077.54134,76.02465
3078.62199,75.89728
3079.70258,75.80493
3080.51298,76.10702
3081.59347,75.95137
3082.6739,75.51862
3083.75426,75.99938
3084.5645,76.19743
3085.64476,75.975
3086.72496,75.99461
3087.53507,76.01493
3088.61517,75.60272
3089.6952,76.45486
3090.50519,76.05822
3091.58512,76.29984
3092.66499,76.3798
3093.7448,76.57672
3094.55461,76.63896
3095.63432,76.38966
3096.71396,76.61499
3097.52365,76.65763
3098.60319,76.32927
3099.68267,76.19022
3100.76209,76.55387
3101.57161,77.2253
3102.65092,76.77561
3103.73017,76.8273
3104.53957,77.31905
3105.61871,76.9311
3106.6978,76.80929
3107.50707,76.2956
3108.58605,76.94146
3109.66497,77.26761
3110.74382,77.2839
3111.55293,76.94025
3112.63168,77.15499
3113.71037,77.16647
3114.51934,77.27268
3115.59793,77.95287
3116.67645,77.18794
3117.75491,77.21397
3118.56372,76.99468
3119.64208,78.10866
3120.72037,76.83851
3121.52905,77.41881
3122.60724,77.40559
3123.68537,77.0836
3124.49392,76.85302
3125.57195,77.35732
3126.64991,77.39005
3127.7278,77.34202
3128.53619,77.61886
3129.61398,77.17292
3130.69171,76.98784
3131.49997,77.79184
3132.5776,77.61795
3133.65516,77.84793
3134.73266,77.5583
3135.54075,77.74981
3136.61814,77.63427
3137.69548,78.33975
3138.50344,77.93009
3139.58067,77.90327
3140.65783,77.91687
3141.73494,78.67961
3142.54273,78.09362
3143.61972,77.58974
3144.69666,77.19482
3145.50432,78.75801
3146.58115,77.97349
3147.65792,78.65991
3148.73463,77.86785
3149.54212,78.42183
3150.61871,78.00498
3151.69525,78.62309
3152.50261,77.90375
3153.57904,77.61303
3154.65541,78.5011
3155.73172,78.12359
3156.53891,78.37271
3157.61511,78.94454
3158.69125,78.60631
3159.49831,78.52864
3160.57434,78.53898
3161.65031,78.53665
3162.72622,78.0436
3163.5331,78.04273
3164.6089,78.42917
3165.68464,78.42066
3166.4914,78.54798
3167.56703,78.73263
3168.6426,78.94872
3169.71811,78.61237
3170.52469,78.75058
3171.60009,78.92684
3172.67543,78.69725
3173.48189,79.54489
3174.55712,79.08921
3175.63228,78.94609
3176.70738,78.5683
3177.51367,79.04852
3178.58867,78.92626
3179.6636,78.72859
3180.73847,79.40305
3181.54458,79.51703
3182.61935,79.18881
3183.69405,79.24599
3184.50003,79.30534
3185.57462,79.17535
3186.64915,79.39331
3187.72362,79.54773
3188.52943,79.62333
3189.60379,79.30942
3190.67809,79.80041
3191.48377,78.88424
3192.55796,79.68742
3193.63208,79.51842
3194.70615,79.67267
3195.51165,79.46879
3196.58561,80.24014
3197.6595,79.56815
3198.73333,80.04859
3199.53866,79.65576
3200.61238,80.10021
3201.68604,79.54057
3202.49124,80.17982
3203.56479,79.83638
3204.63828,79.75466
3205.7117,79.89994
3206.51673,80.07701
3207.59004,80.03713
3208.66329,80.33687
3209.46819,80.56406
3210.54134,80.01745
3211.61442,80.04096
3212.68743,80.10441
3213.49215,80.09765
3214.56506,80.82016
3215.63791,80.55109
3216.71069,79.93013
3217.51524,80.6042
3218.58791,80.59004
3219.66052,80.86062
3220.46493,80.60154
3221.53743,80.42258
3222.60987,80.84725
3223.68225,81.03733
3224.48649,80.58529
3225.55875,81.12842
3226.63095,80.35875
3227.70309,80.53143
3228.50715,81.12407
3229.57918,81.41675
3230.65115,80.8382
3231.72305,80.78146
3232.52694,80.97877
3233.59873,81.14077
3234.67046,81.41021
3235.47421,80.52734
3236.54583,80.66247
3237.61739,81.21515
3238.68888,81.12416
3239.49246,81.00975
3240.56384,81.1181
3241.63516,80.89229
3242.70642,80.85244
3243.50982,81.83681
3244.58096,81.02175
3245.65204,80.65918
3246.45531,80.29978
3247.52628,81.02736
3248.59719,81.2185
3249.66804,81.23884
3250.47113,81.08207
3251.54186,81.42311
3252.61253,81.20109
3253.68314,81.32351
3254.48605,81.44669
3255.55655,81.14303
3256.62698,81.27819
3257.69735,80.96254
3258.50008,80.48854
3259.57034,81.73533
3260.64054,81.31932
3261.71067,81.14981
3262.51322,81.16314
3263.58324,80.62573
3264.6532,81.3436
3265.45562,81.56974
3266.52547,81.47827
3267.59525,81.54946
3268.66496,81.41307
3269.46721,80.3027
3270.53682,81.23848
3271.60636,81.45877
3272.67583,82.00293
3273.4779,81.20177
3274.54727,81.56616
3275.61657,81.91846
3276.68581,81.87223
3277.4877,82.10709
3278.55682,82.01091
3279.62588,81.70427
3280.69488,81.63164
3281.49659,81.40795
3282.56548,82.41089
3283.6343,81.65717
3284.70306,81.31203
3285.50459,81.80031
3286.57323,81.73296
3287.64182,81.90488
3288.44321,81.11508
3289.51168,81.78947
3290.58009,82.22172
3291.64843,81.85289
3292.44964,82.176
3293.51787,81.95503
3294.58604,82.52681
3295.65414,81.66019
3296.45517,81.55456
3297.52316,81.48366
3298.59109,81.91318
3299.65895,81.67563
3300.4598,81.76365
3301.52755,82.32719
3302.59523,81.9787
3303.66285,81.87645
3304.46352,81.85836
3305.53103,81.38811
3306.59847,80.90751
3307.66585,82.32637
3308.46634,81.86036
3309.53361,82.01484
3310.60081,82.33772
3311.66794,82.37135
3312.46825,81.71208
3313.53527,81.75269
3314.60223,82.0051
3315.66912,81.65212
3316.46925,82.24783
3317.53603,82.57495
3318.60275,82.45547
3319.6694,81.99511
3320.46934,82.74612
3321.53588,82.29601
3322.60235,82.05391
3323.66876,82.5704
3324.46853,82.14655
3325.53482,82.2272
3326.60105,81.84111
3327.66721,81.37446
3328.4668,82.56772
3329.53285,81.32076
3330.59883,81.66633
3331.66475,82.62314
3332.46415,82.57373
3333.52996,82.23222
3334.5957,82.54353
3335.66138,82.05527
3336.4606,81.97613
3337.52616,82.3368
3338.59166,82.6441
3339.65709,82.31772
3340.45613,81.72693
3341.52145,81.98277
3342.5867,81.92107
3343.65189,81.34395
3344.45074,81.82857
3345.51582,81.46695
3346.58083,81.08055
3347.64577,81.72427
3348.44444,81.5946
3349.50927,81.34041
3350.57403,81.29554
3351.63873,80.88578
3352.43722,81.58833
3353.5018,80.60493
3354.56632,81.23101
3355.63078,80.64521
3356.42908,81.85799
3357.49342,81.48791
3358.55769,81.30853
3359.6219,80.80239
3360.42002,81.34638
3361.48411,80.98745
3362.54814,80.76941
3363.6121,81.44175
3364.676,81.01158
3365.47388,81.34677
3366.53767,81.30455
3367.60138,80.80442
3368.66504,80.97775
3369.46273,81.62359
3370.52627,81.28464
3371.58974,81.23852
3372.65315,79.47969
3373.45066,81.14695
3374.51395,81.3107
3375.57717,80.2971
3376.64033,80.92209
3377.43766,80.54331
3378.5007,80.7546
3379.56368,80.6076
3380.62659,80.92943
3381.42373,80.43014
3382.48653,81.09418
3383.54926,80.40527
3384.61193,79.65721
3385.40888,80.52995
3386.47143,79.32015
3387.53392,80.51912
3388.59633,80.94852
3389.65868,80.28796
3390.4554,80.34144
3391.51764,80.20007
3392.57981,80.10075
3393.64191,80.10445
3394.43845,79.74885
3395.50043,80.39177
3396.56236,79.75274
3397.62421,79.80365
3398.42056,79.77674
3399.4823,79.96147
3400.54397,79.8151
3401.60558,79.24883
3402.40174,79.29368
3403.46323,79.3373
3404.52465,78.84174
3405.58601,78.66887
3406.6473,78.90416
3407.44323,79.02159
3408.5044,78.52221
3409.56551,78.35467
3410.62656,79.05168
3411.42229,79.08195
3412.48322,78.25791
3413.54408,78.87148
3414.60487,77.75834
3415.40042,78.36108
3416.4611,78.17041
3417.52171,79.18579
3418.58225,78.61019
3419.64273,78.80535
3420.43804,78.25723
3421.4984,77.37628
3422.5587,78.40534
3423.61892,77.36123
3424.41405,77.3711
3425.47416,77.33777
3426.5342,77.2728
3427.59418,76.93921
3428.65409,77.12644
3429.44897,77.40309
3430.50877,77.04725
3431.56849,76.0003
3432.62815,76.71355
3433.42285,76.41921
3434.48239,76.16943
3435.54186,76.2726
3436.60127,76.81896
3437.39578,76.1538
3438.45507,75.53201
3439.5143,75.77417
3440.57345,75.88039
3441.63254,76.07202
3442.42681,74.98288
3443.48579,75.12764
3444.54469,74.80373
3445.60353,74.70057
3446.39761,75.40659
3447.45633,74.96625
3448.51498,75.27222
3449.57357,74.82028
3450.63209,74.19246
3451.42593,73.96032
3452.48433,74.16683
3453.54266,74.92401
3454.60093,74.42471
3455.39458,73.55285
3456.45273,74.17574
3457.51081,72.92726
3458.56883,73.41976
3459.62677,73.32805
3460.42019,72.8458
3461.47801,72.81208
3462.53577,72.42977
3463.59347,73.07957
3464.38669,72.12997
3465.44426,71.94642
3466.50177,72.09873
3467.55921,71.99211
3468.61658,71.33869
3469.40957,71.80386
3470.46682,70.79337
3471.524,71.67671
3472.58112,70.88279
3473.63817,70.07514
3474.43092,71.01049
3475.48785,70.54699
3476.54471,69.57941
3477.60151,69.92401
3478.39406,69.65876
3479.45074,69.94441
3480.50735,69.6886
3481.56389,69.05613
3482.62036,68.66081
3483.41267,67.85457
3484.46903,67.96396
3485.52532,68.22065
3486.58153,67.94443
3487.37365,68.20903
3488.42975,67.59229
3489.48579,66.80767
3490.54175,66.35722
3491.59765,66.84686
3492.38952,66.15497
3493.4453,65.97886
3494.50101,65.60595
3495.55665,65.27407
3496.61222,65.11462
3497.40386,65.70523
3498.45931,65.61234
3499.5147,64.94172
3500.57001,64.72197
3501.62526,64.24592
3502.41665,63.83492
3503.47178,64.24736
3504.52684,63.28964
3505.58184,62.8386
3506.37304,62.83798
3507.42791,63.08602
3508.48271,63.10014
3509.53745,63.03746
3510.59212,62.13956
3511.38307,62.50803
3512.43762,61.15936
3513.4921,62.04079
3514.54651,61.24273
3515.60085,60.64975
3516.39156,61.38671
3517.44579,60.02406
3518.49994,60.48783
3519.55403,60.24446
3520.60804,59.15045
3521.39851,59.79385
3522.45241,58.70447
3523.50623,58.888
3524.55999,59.58988
3525.61368,58.01147
3526.40391,57.81692
3527.45748,57.88871
3528.51098,57.72698
3529.56441,58.16333
3530.61777,57.96226
3531.40775,57.3112
3532.461,57.40857
3533.51417,56.44647
3534.56728,56.46265
3535.35706,56.31928
3536.41004,56.23792
3537.46296,55.88042
3538.51581,55.01981
3539.56859,55.61083
3540.35812,54.55119
3541.41078,55.21361
3542.46337,54.01438
3543.51589,54.27364
3544.56834,54.09764
3545.35763,54.50864
3546.40996,53.52333
3547.46222,52.87751
3548.51441,52.87519
3549.56653,52.7513
3550.35558,52.35592
3551.40758,52.99043
3552.45951,51.84448
3553.51137,52.33306
3554.56316,52.18054
3555.35196,51.95829
3556.40364,51.44003
3557.45524,51.10888
3558.50677,51.27979
3559.55823,50.9702
3560.60963,50.00289
3561.39813,50.09342
3562.4494,50.1799
3563.5006,49.62375
3564.55174,49.94654
3565.6028,50.04049
3566.39105,49.40176
3567.442,49.95062
3568.49287,49.76534
3569.54367,49.07004
3570.59441,48.93657
3571.38241,48.48091
3572.43302,49.20351
3573.48357,48.33505
3574.53404,48.64812
3575.58444,47.52917
3576.3722,47.7154
3577.42248,48.45378
3578.47269,47.68628
3579.52283,46.67489
3580.5729,47.13919
3581.36041,46.86849
3582.41036,47.22939
3583.46024,46.67808
3584.51005,46.61604
3585.55979,45.78756
3586.34705,46.82032
3587.39667,46.3757
3588.44621,45.94853
3589.49569,46.30408
3590.5451,45.6491
3591.59444,45.70167
3592.38139,45.41263
3593.43061,45.53012
3594.47975,45.44853
3595.52883,45.2207
3596.57783,44.48586
3597.36454,45.28417
3598.41342,44.51764
3599.46224,43.70142
3600.51098,43.69966
3601.55965,44.20025
3602.34611,43.13661
3603.39466,44.60509
3604.44313,43.20639
3605.49154,43.69035
3606.53988,43.65611
3607.58815,44.60196
3608.3743,43.55329
3609.42245,43.63926
3610.47052,42.74741
3611.51852,42.60058
3612.56646,42.7254
3613.35236,42.64739
3614.40017,42.59744
3615.44791,42.00247
3616.49558,42.39481
3617.54318,42.44745
3618.59071,41.62954
3619.37631,41.86824
3620.42371,41.77847
3621.47105,41.89965
3622.51831,40.55472
3623.5655,41.65213
3624.35085,40.91097
3625.39792,40.08077
3626.44492,39.62751
3627.49185,40.68738
3628.5387,39.76252
3629.58549,39.79056
3630.37053,39.82386
3631.4172,39.81487
3632.46379,38.63853
3633.51031,39.16469
3634.55676,38.78663
3635.34155,38.0878
3636.38788,38.27628
3637.43413,36.80284
3638.48031,37.40287
3639.52643,38.02066
3640.57247,37.25869
3641.35696,36.78
3642.40287,37.01113
3643.44872,36.45597
3644.4945,36.93592
3645.5402,35.55406
3646.32443,35.98907
3647.37002,35.91198
3648.41552,34.96899
3649.46096,35.7106
3650.50633,34.95287
3651.55163,35.42477
3652.33555,34.46348
3653.38072,33.68613
3654.42582,33.56939
3655.47085,35.05328
3656.51581,33.92022
3657.5607,33.84954
3658.34432,32.90212
3659.38908,32.50711
3660.43377,32.57543
3661.47839,32.13332
3662.52293,31.99121
3663.56741,31.7613
3664.35072,31.90917
3665.39507,30.88824
3666.43935,31.4129
3667.48356,30.88488
3668.5277,30.48996
3669.57176,30.56409
3670.35476,29.87209
3671.3987,28.76869
3672.44257,30.33322
3673.48637,29.58544
3674.53009,27.98217
3675.31284,28.71235
3676.35644,27.99745
3677.39997,27.92112
3678.44343,27.70062
3679.48681,27.59774
3680.53012,27.69899
3681.31256,27.59239
3682.35575,26.82531
3683.39886,26.93011
3684.44191,26.51656
3685.48488,25.47823
3686.52778,26.70769
3687.30991,26.83395
3688.35268,25.40703
3689.39539,24.92858
3690.43802,25.57228
3691.48057,24.44576
3692.52306,25.0226
3693.56548,25.03432
3694.34724,24.35169
3695.38953,23.71522
3696.43175,24.83934
3697.47389,23.88191
3698.51596,23.69766
3699.55796,23.32458
3700.33942,22.87961
3701.38129,24.00058
3702.42309,22.51069
3703.46482,22.19091
3704.50648,21.60172
3705.54806,22.76525
3706.32921,21.83112
3707.37066,22.98902
3708.41205,21.73094
3709.45337,21.75373
3710.49461,21.45226
3711.53578,21.488
3712.31661,20.55369
3713.35765,20.97111
3714.39862,21.07622
3715.43952,20.4872
3716.48035,20.07227
3717.5211,19.61574
3718.30162,21.58565
3719.34224,20.1849
3720.3828,19.99494
3721.42328,19.11881
3722.46369,19.41821
3723.50402,19.92271
3724.54429,19.09172
3725.32444,19.01321
3726.36457,17.98319
3727.40464,18.57421
3728.44463,18.77489
3729.48455,18.77967
3730.52439,19.23398
3731.30423,18.60188
3732.34395,18.67067
3733.3836,19.02626
3734.42317,18.9729
3735.46267,18.66775
3736.5021,18.9448
3737.54145,17.70285
3738.32092,18.01826
3739.36015,17.90705
3740.3993,16.98628
3741.43838,17.76179
3742.47739,18.75159
3743.51633,17.95244
3744.29548,17.77322
3745.33429,18.32082
3746.37302,18.218
3747.41168,17.95116
3748.45027,17.12022
3749.48879,17.24126
3750.52723,17.27362
3751.30601,17.7118
3752.34433,17.10645
3753.38257,17.11653
3754.42074,16.27768
3755.45883,16.38002
3756.49685,16.74448
3757.5348,16.73112
3758.31322,16.76811
3759.35104,16.2093
3760.38878,16.43381
3761.42646,17.40682
3762.46406,17.81993
3763.50158,17.16566
3764.53904,17.58325
3765.31708,17.85062
3766.3544,16.57451
3767.39166,16.86825
3768.42883,17.29749
3769.46594,16.28789
3770.50297,16.9134
3771.2807,16.43776
3772.3176,17.14644
3773.35443,16.76932
3774.39118,16.89941
3775.42786,16.48399
3776.46447,17.33985
3777.50101,15.87701
3778.27836,15.94024
3779.31477,17.23468
3780.3511,17.45077
3781.38736,16.61874
3782.42354,16.63395
3783.45965,16.53181
3784.49569,17.7348
3785.53165,17.23784
3786.30858,17.34962
3787.34441,17.06857
3788.38017,17.10388
3789.41586,17.59131
3790.45147,17.81402
3791.48701,16.84552
3792.52248,17.37289
3793.29903,17.21662
3794.33436,17.79542
3795.36962,18.11418
3796.40481,16.86021
3797.43992,17.72113
3798.47496,17.51943
3799.50993,17.21356
3800.2861,17.92015
3801.32094,18.3258
3802.3557,17.48172
3803.39039,17.65528
3804.425,17.6019
3805.45954,16.58212
3806.49401,17.4309
3807.26981,16.63837
3808.30414,17.36433
3809.3384,17.41757
3810.37259,17.93732
3811.4067,17.17832
3812.44074,16.48281
3813.4747,17.02678
3814.50859,17.65343
3815.28396,17.10339
3816.31772,17.70925
3817.35141,17.8937
3818.38502,18.01138
3819.41855,17.76433
3820.45201,17.82494
3821.4854,18.09785
3822.51871,17.22428
3823.29365,16.63646
3824.32683,17.48328
3825.35994,17.58172
3826.39297,17.84396
3827.42593,18.37201
3828.45881,17.88564
3829.49162,18.08362
3830.26618,17.62549
3831.29886,17.60823
3832.33146,17.63512
3833.36399,17.61102
3834.39645,18.427
3835.42883,17.28904
3836.46113,17.08106
3837.49336,17.11598
3838.26748,17.76309
3839.29958,18.1131
3840.33161,17.93928
3841.36356,18.04094
3842.39543,17.49669
3843.42723,17.36705
3844.45896,18.38079
3845.4906,18.14503
3846.26429,18.32064
3847.29581,17.61326
3848.32725,17.31228
3849.35862,17.27584
3850.38992,17.52971
3851.42113,18.61329
3852.45228,17.21611
3853.48335,18.3793
3854.2566,17.03166
3855.28753,17.19778
3856.3184,18.68767
3857.34918,17.55741
3858.37989,17.55903
3859.41053,17.69425
3860.44109,18.25423
3861.47158,18.38273
3862.50199,16.90641
3863.27474,17.12662
3864.30502,17.88607
3865.33522,16.92264
3866.36535,17.99783
3867.3954,17.36752
3868.42538,17.22953
3869.45528,17.2167
3870.48511,17.58461
3871.25743,17.09076
3872.28712,17.09686
3873.31674,17.82856
3874.34628,17.92676
3875.37575,17.19896
3876.40514,16.42488
3877.43446,17.20273
3878.4637,17.76866
3879.49287,16.54185
3880.26469,17.10711
3881.29372,16.17083
3882.32268,17.07555
3883.35156,18.5806
3884.38037,18.15787
3885.4091,18.13683
3886.43775,17.04336
3887.46633,17.67001
3888.49483,16.13792
3889.26616,16.47029
3890.29453,16.9455
3891.32282,16.84645
3892.35104,16.57518
3893.37918,17.58522
3894.40725,16.06095
3895.43524,17.5132
3896.46315,18.2891
3897.49099,17.74357
3898.26182,17.62595
3899.28953,17.089
3900.31716,16.5967
3901.34471,16.59845
3902.37219,17.2024
3903.39959,16.57758
3904.42691,16.67775
3905.45416,16.25009
3906.48134,16.66095
3907.25167,16.75332
3908.27871,16.15636
3909.30567,17.57227
3910.33256,17.19136
3911.35937,17.40434
3912.3861,16.46846
3913.41276,15.41844
3914.43934,15.89886
3915.46585,15.44516
3916.23568,15.88031
3917.26205,17.2678
3918.28835,16.7473
3919.31457,16.80818
3920.34071,16.74866
3921.36678,16.86177
3922.39277,16.83409
3923.41868,16.56899
3924.44452,16.83951
3925.47028,16.59868
3926.23955,16.23178
3927.26518,15.29093
3928.29073,16.32448
3929.3162,16.56932
3930.3416,16.8201
3931.36692,16.10977
3932.39216,15.6065
3933.41733,15.83392
3934.44242,15.69619
3935.46744,15.61664
3936.23615,14.99169
3937.26102,15.55394
3938.28583,16.47033
3939.31055,15.13393
3940.3352,17.16246
3941.35978,16.07771
3942.38427,16.44992
3943.40869,16.04822
3944.43303,15.33583
3945.4573,15.25749
3946.22544,15.24588
3947.24957,15.83266
3948.27363,15.82614
3949.2976,15.18838
3950.3215,15.74337
3951.34533,15.6919
3952.36907,16.25947
3953.39274,14.54133
3954.41633,15.34364
3955.43985,15.89114
3956.46328,14.87102
3957.23081,14.27798
3958.25411,14.46395
3959.27734,15.73513
3960.30048,14.99833
3961.32355,15.42949
3962.34655,15.72436
3963.36946,14.62836
3964.3923,14.7307
3965.41506,16.19478
3966.43775,14.16133
3967.46036,15.14742
3968.22726,14.8059
3969.24973,15.17194
3970.27212,14.17912
3971.29444,14.0185
3972.31668,14.17841
3973.33884,13.8914
3974.36093,14.6685
3975.38293,14.46292
3976.40486,14.35187
3977.42671,13.67827
3978.44849,13.90886
3979.21477,13.75234
3980.23641,14.87073
3981.25797,14.85228
3982.27945,14.51468
3983.30086,13.98441
3984.32219,14.06928
3985.34344,15.28957
3986.36461,14.7072
3987.3857,13.81552
3988.40672,14.13436
3989.42766,14.05086
3990.44852,13.37758
3991.21412,12.78665
3992.23484,13.19897
3993.25549,12.99716
3994.27606,13.60334
3995.29655,13.43799
3996.31697,14.26877
3997.3373,13.10773
3998.35756,11.80489
3999.37774,13.00489
4000.39784,13.09361
4001.41787,13.58975
4002.43781,12.35125
4003.45768,11.97994
4004.22253,11.75243
4005.24226,11.82419
4006.26192,13.37786
4007.28149,12.24057
4008.30099,10.73211
4009.32041,11.57986
4010.33975,11.8948
4011.35901,12.55699
4012.3782,11.80283
4013.3973,10.91609
4014.41633,12.38302
4015.43528,11.54835
4016.45415,12.46285
4017.21826,11.78892
4018.23699,11.89425
4019.25565,11.29582
4020.27422,10.71563
4021.29272,12.63567
4022.31115,11.29592
4023.32949,11.04828
4024.34775,10.86469
4025.36594,10.64144
4026.38405,10.9112
4027.40207,10.12279
4028.42002,10.00664
4029.4379,10.3462
4030.20125,11.2026
4031.21898,10.3106
4032.23664,10.83146
4033.25422,11.20503
4034.27171,10.05746
4035.28913,9.99238
4036.30648,10.06801
4037.32374,10.04174
4038.34092,9.26877
4039.35803,9.99403
4040.37505,10.56787
4041.392,9.23115
4042.40887,9.54795
4043.42566,8.37903
4044.44237,8.2677
4045.20485,9.47593
4046.22142,7.91736
4047.23792,10.06806
4048.25433,8.99215
4049.27067,10.05376
4050.28693,8.54055
4051.30311,8.26335
4052.31921,8.92559
4053.33523,8.79073
4054.35117,8.58007
4055.36703,8.00515
4056.38281,9.71749
4057.39852,8.44896
4058.41414,8.51741
4059.42969,8.7647
4060.1913,7.73931
4061.2067,7.43311
4062.22203,7.68311
4063.23728,7.33354
4064.25245,7.00953
4065.26754,7.3867
4066.28255,6.46578
4067.29749,6.2116
4068.31234,7.67167
4069.32711,8.0096
4070.34181,7.01463
4071.35642,5.43764
4072.37096,6.08356
4073.38541,5.53781
4074.39979,6.37947
4075.41409,7.37223
4076.42831,5.31862
4077.18892,6.6997
4078.203,6.56469
4079.217,5.7962
4080.23091,6.99792
4081.24475,5.50786
4082.25852,5.42889
4083.2722,4.65022
4084.2858,6.65668
4085.29932,5.37165
4086.31276,6.66167
4087.32612,5.44368
4088.33941,5.91678
4089.35261,4.62589
4090.36573,5.01435
4091.37878,5.53272
4092.39174,5.49327
4093.40463,4.65659
4094.41743,5.67935
4095.17698,5.57912
4096.18964,4.9591
4097.20223,5.07058
4098.21473,4.93415
4099.22716,4.7828
4100.2395,4.80447
4101.25177,5.12858
4102.26395,3.97455
4103.27606,6.38327
4104.28809,3.79687
4105.30003,5.62327
4106.3119,5.10688
4107.32368,3.90917
4108.33539,4.13352
4109.34701,4.56253
4110.35856,4.77669
4111.37002,4.96089
4112.3814,3.86229
4113.39271,3.80152
4114.40393,4.83056
4115.41508,4.41754
4116.17338,4.07463
4117.18439,2.29823
4118.19531,4.80416
4119.20615,3.8538
4120.21691,4.39149
4121.2276,4.40622
4122.2382,5.11906
4123.24872,4.13102
4124.25916,4.9606
4125.26952,3.93625
4126.2798,3.87491
4127.29,3.54178
4128.30012,4.20341
4129.31016,4.28929
4130.32012,4.65775
4131.33,3.21881
4132.33979,3.25509
4133.34951,3.18128
4134.35915,3.54704
4135.3687,3.73343
4136.37818,4.41995
4137.38757,3.97534
4138.39689,2.08142
4139.40612,4.23726
4140.16299,3.129
4141.17208,3.83971
4142.18109,3.36368
4143.19002,2.16027
4144.19887,3.42602
4145.20764,3.04744
4146.21633,3.01914
4147.22494,3.12561
4148.23346,4.11777
4149.24191,2.11621
4150.25027,1.75047
4151.25856,3.50737
4152.26676,2.84188
4153.27488,3.13538
4154.28292,1.55895
4155.29088,2.65125
4156.29876,3.86386
4157.30656,3.64774
4158.31428,4.36861
4159.32191,3.89253
4160.32947,2.20332
4161.33694,3.18856
4162.34433,1.52688
4163.35164,1.14458
4164.35887,1.80133
4165.36602,1.12427
4166.37309,2.93784
4167.38008,2.98092
4168.38698,2.73193
4169.39381,2.65069
4170.40055,2.18097
4171.15555,2.64262
4172.16215,2.45043
4173.16867,2.74601
4174.17511,3.51488
4175.18146,2.47938
4176.18774,2.49408
4177.19393,1.62242
4178.20004,2.35694
4179.20607,2.27881
4180.21202,1.69438
4181.21789,2.08635
4182.22368,3.45392
4183.22938,1.98994
4184.235,1.53167
4185.24055,2.62247
4186.24601,2.80231
4187.25138,2.06254
4188.25668,1.8541
4189.2619,2.21411
4190.26703,2.16223
4191.27208,2.28572
4192.27705,2.01147
4193.28194,2.54903
4194.28674,2.95872
4195.29147,2.31732
4196.29611,1.63849
4197.30067,2.93888
4198.30515,1.58866
4199.30955,1.39648
4200.31386,1.04396
4201.3181,3.17925
4202.32225,2.06335
4203.32632,1.4338
4204.33031,0.74911
4205.33421,2.10514
4206.33804,2.57401
4207.34178,0.42148
4208.34544,0.34943
4209.34902,1.40924
4210.35251,0.7157
4211.35592,1.23418
4212.35926,1.27579
4213.36251,0.75089
4214.36567,2.76643
4215.36876,2.21286
4216.37176,2.46616
4217.37468,1.88106
4218.37752,2.00545
4219.38028,2.11337
4220.38295,1.46819
4221.1349,1.85767
4222.13743,2.4519
4223.13988,1.3719
4224.14224,1.83933
4225.14453,0.43158
4226.14673,0.05547
4227.14885,1.32671
4228.15088,1.41919
4229.15283,1.45791
4230.15471,2.11571
4231.15649,1.70699
4232.1582,1.58366
4233.15982,0.57585
4234.16136,2.37098
4235.16282,1.66187
4236.1642,1.59817
4237.16549,1.46178
4238.1667,2.28804
4239.16783,1.66909
4240.16887,2.45284
4241.16984,2.3887
4242.17072,1.88963
4243.17151,1.8963
4244.17223,1.28042
4245.17286,2.05741
4246.17341,2.14225
4247.17388,0.86998
4248.17426,2.20317
4249.17456,1.81939
4250.17478,1.12499
4251.17491,0.3646
4252.17496,1.90101
4253.17493,2.00013
4254.17482,0.06847
4255.17462,2.01109
4256.17434,0.23524
4257.17398,2.17141
4258.17354,2.11745
4259.17301,2.61631
4260.1724,1.86559
4261.1717,2.44274
4262.17092,1.46224
4263.17006,2.45029
4264.16912,0.25208
4265.16809,2.40921
4266.16698,1.93978
4267.16579,2.0001
4268.16451,0.85018
4269.16315,1.91819
4270.16171,1.88873
4271.16018,0.72942
4272.15857,0.49908
4273.15688,2.177
4274.1551,1.69919
4275.15324,1.95437
4276.1513,2.02436
4277.14927,2.26619
4278.14716,1.88518
4279.14497,1.45061
4280.14269,0.00606
4281.14033,1.65976
4282.13789,2.04413
4283.13536,1.87262
4284.13275,1.45881
4285.13006,0.30135
4286.12728,1.61811
4287.12442,1.74098
4288.12148,0.59993
4289.11845,0.45653
4290.11534,1.00839
4291.11214,1.11757
4292.35803,1.67737
4293.35465,1.79043
4294.35118,1.37328
4295.34763,0.77418
4296.34399,1.52905
4297.34027,1.70805
4298.33647,1.0944
4299.33259,1.26327
4300.32862,1.75575
4301.32456,2.47512
4302.32042,1.72052
4303.3162,0.8661
4304.3119,1.82765
4305.30751,0.99009
4306.30303,0.3477
4307.29848,1.27188
4308.29384,0.85361
4309.28911,1.61679
4310.2843,0.94041
4311.27941,1.52419
4312.27443,1.40434
4313.26937,0.83503
4314.26422,0.87101
4315.25899,1.17848
4316.25368,0.79909
4317.24828,0.20431
4318.2428,0.04501
4319.23723,0.15467
4320.23158,0.59722
4321.22585,1.57625
4322.22003,1.20655
4323.21413,0.18049
4324.20814,0.86397
4325.20207,0.46844
4326.19591,1.28272
4327.18967,0.03525
4328.18335,0.1724
4329.17694,0.44414
4330.17044,0.4375
4331.16387,0.77203
4332.1572,0.22934
4333.15046,1.06448
4334.14363,0.67172
4335.13671,1.02223
4336.12971,0.21788
4337.12262,0.0929
4338.11545,0.07562
4339.1082,0.03921
4340.10086,0.48878
4341.34157,0.52856
4342.33404,0.96623
4343.32643,0.56243
4344.31873,1.03667
4345.31095,0.24762
4346.30308,0.26568
4347.29513,2.15705
4348.28709,0.2925
4349.27897,0.31658
4350.27076,0.25062
4351.26247,0.05428
4352.25409,0.34124
4353.24563,0.18597
4354.23708,0.06889
4355.22845,0.075
4356.21974,0.57622
4357.21094,0.21425
4358.20205,0.87618
4359.19308,0.66861
4360.18402,1.27333
4361.17488,0.89295
4362.16566,0.46001
4363.15635,0.9982
4364.14695,0.10242
4365.13747,0.99447
4366.1279,0.08283
4367.11825,1.27737
4368.10852,0.19833
4369.09869,1.14764
4370.08879,0.34779
4371.32628,0.16077
4372.31619,0.35084
4373.306,0.37597
4374.29573,0.42469
4375.28538,1.24635
4376.27494,0.29267
4377.26441,0.10651
4378.2538,0.07973
4379.24311,0.93448
4380.23233,0.02542
4381.22146,0.42632
4382.21051,0.81842
4383.19947,0.85201
4384.18835,0.05874
4385.17714,0.39825
4386.16585,0.33018
4387.15447,0.26739
4388.14301,0.38845
4389.13146,0.03927
4390.11982,1.05815
4391.1081,0.1795
4392.09629,0.95749
4393.0844,0.26368
4394.31941,0.557
4395.30733,0.64256
4396.29516,0.55216
4397.2829,0.48251
4398.27056,0.33793
4399.25813,0.34418
4400.24562,0.49318
4401.23302,0.06203
4402.22033,0.45797
4403.20756,0.35058
4404.1947,1.12911
4405.18176,0.08699
4406.16873,0.54762
4407.15562,0.34717
4408.14241,0.37007
4409.12913,0.75184
4410.11576,0.91017
4411.1023,0.92077
4412.08875,0.21103
4413.07512,0.57424
4414.30796,0.21176
4415.29414,0.00048745
4416.28023,0.83963
4417.26623,0.01564
4418.25215,0.25244
4419.23798,0.06413
4420.22373,0.21492
4421.20938,0.79929
4422.19496,0.00267
4423.18044,0.38212
4424.16584,0.36745
4425.15116,0.65703
4426.13639,0.17906
4427.12153,0.15285
4428.10658,0.08167
4429.09155,0.612
4430.07644,0.05378
4431.30742,0.23219
4432.29211,0.5847
4433.27671,0.22025
4434.26122,0.36615
4435.24565,1.17979
4436.22999,0.44301
4437.21425,0.43596
4438.19842,0.75229
4439.1825,0.20096
4440.1665,0.47111
4441.15041,0.23825
4442.13423,0.75369
4443.11797,0.28411
4444.10162,0.37704
4445.08518,0.14086
4446.06866,0.11409
4447.29788,0.57553
4448.28116,0.51742
4449.26436,0.016
4450.24747,0.23258
4451.23049,0.36535
4452.21342,1.00824
4453.19627,0.10104
4454.17903,0.21975
4455.16171,0.04645
4456.1443,0.74866
4457.1268,0.05671
4458.10921,0.48589
4459.09154,0.49572
4460.07378,1.26827
4461.30145,0.37425
4462.2835,1.06902
4463.26545,0.06206
4464.24732,0.32509
4465.22911,0.83418
4466.2108,0.31173
4467.19241,0.70198
4468.17393,0.40569
4469.15537,0.23925
4470.13672,0.53405
4471.11798,1.14338
4472.09915,1.12829
4473.08024,0.03276
4474.06124,0.2275
4475.28736,1.38283
4476.26816,1.54078
4477.24888,0.51045
4478.22951,0.91266
4479.21005,1.10999
4480.1905,0.43213
4481.17087,0.78176
4482.15115,0.55254
4483.13134,0.15949
4484.11144,0.06832
4485.09146,0.57235
4486.07139,0.1535
4487.05123,0.41054
4488.27591,1.21732
4489.25555,0.7794
4490.23511,0.78461
4491.21458,1.48234
4492.19396,0.6606
4493.17326,0.89788
4494.15246,0.0558
4495.13158,1.10902
4496.11062,0.26418
4497.08956,0.57796
4498.06842,0.13591
4499.04719,0.60951
4500.27052,0.00909
4501.24909,0.55789
4502.22758,0.69658
4503.20597,0.98407
4504.18428,0.56021
4505.1625,0.47324
4506.14063,0.38215
4507.11868,0.34799
4508.09664,0.82424
4509.0745,0.04435
4510.05229,0.02261
4511.27439,0.40687
4512.25197,0.38362
4513.22947,0.23654
4514.20687,0.41063
4515.18419,0.27314
4516.16142,0.30876
4517.13857,0.45893
4518.11562,0.46125
4519.09259,0.36312
4520.06947,0.29833
4521.04626,0.30811
4522.26712,1.12722
4523.24371,0.70721
4524.22022,0.000821816
4525.19663,0.6706
4526.17296,0.48292
4527.1492,0.76484
4528.12535,0.0699
4529.10142,0.6956
4530.07739,0.05236
4531.05328,0.03856
4532.27301,0.16491
4533.2487,0.16614
4534.2243,0.06192
4535.19981,0.5864
4536.17523,0.26211
4537.15056,0.42962
4538.12581,0.36846
4539.10097,0.37783
4540.07603,0.08775
4541.05101,0.0494
4542.26961,0.8808
4543.2444,0.14552
4544.21909,1.03871
4545.19369,1.00002
4546.16821,0.47611
4547.14263,0.71333
4548.11697,0.19251
4549.09122,0.65866
4550.06538,0.4936
4551.03945,0.25824
4552.25692,1.06585
4553.23079,0.08536
4554.20457,0.30512
4555.17827,0.60767
4556.15187,0.20217
4557.12539,0.24408
4558.09882,0.78625
4559.07215,0.03334
4560.0454,0.41987
4561.26184,0.53327
4562.23489,0.24293
4563.20785,0.44434
4564.18073,0.01897
4565.15351,0.59367
4566.1262,0.15304
4567.09881,0.3517
4568.07133,0.32968
4569.04375,0.09175
4570.25916,0.42172
4571.23139,0.17492
4572.20353,0.39223
4573.17557,0.18282
4574.14753,0.85603
4575.1194,0.40991
4576.09118,0.57574
4577.06288,0.89338
4578.03448,0.69813
4579.24886,0.01322
4580.22026,0.20488
4581.19157,0.37443
4582.16279,0.54105
4583.13393,0.08242
4584.10497,0.53912
4585.07593,0.18544
4586.04679,0.42287
4587.01757,0.04058
4588.23091,0.28915
4589.20149,0.5725
4590.17197,1.31747
4591.14237,0.16364
4592.11267,0.14814
4593.08289,0.0434
4594.05302,0.01085
4595.02306,1.14037
4596.23548,1.03443
4597.20531,0.48297
4598.17506,0.59494
4599.14472,0.00301
4600.11429,0.73155
4601.08376,0.96173
4602.05315,0.36445
4603.02245,0.98069
4604.23395,0.11374
4605.20304,0.04356
4606.17205,0.33681
4607.14097,0.14265
4608.10979,0.19011
4609.07853,0.27196
4610.04718,0.15231
4611.01573,0.08049
4612.2263,0.69566
4613.19466,0.73614
4614.16292,0.39731
4615.1311,1.04493
4616.09918,0.47921
4617.06718,1.20427
4618.03508,0.35323
4619.24484,0.23084
4620.21254,0.44525
4621.18015,0.19558
4622.14768,0.24681
4623.11511,0.54173
4624.08245,0.5842
4625.0497,0.21835
4626.01687,0.04729
4627.22569,0.60103
4628.19265,0.49747
4629.15952,0.4089
4630.1263,0.72704
4631.09298,1.18768
4632.05958,0.162
4633.02609,0.43545
4634.2341,0.53133
4635.2004,0.06015
4636.16662,0.52736
4637.13274,0.68844
4638.09877,0.94341
4639.06472,0.07952
4640.03057,0.62015
4641.23776,0.4935
4642.2034,0.33604
4643.16896,0.26617
4644.13443,0.13982
4645.09981,1.07264
4646.06509,0.32186
4647.03029,0.44354
4648.23666,0.77835
4649.20165,0.56955
4650.16655,0.54282
4651.13136,0.16439
4652.09608,0.44918
4653.06071,0.07729
4654.02525,0.06718
4655.2308,0.6596
4656.19513,0.60925
4657.15937,1.03388
4658.12353,0.40003
4659.08759,0.50512
4660.05156,0.0754
4661.01544,0.44475
4662.22016,0.2442
4663.18384,0.45302
4664.14743,1.26628
4665.11092,0.431
4666.07432,0.22674
4667.03764,0.36465
4668.00086,0.15645
4669.20476,0.26841
4670.16777,0.58547
4671.1307,0.28974
4672.09353,0.06253
4673.05628,0.5618
4674.01893,0.30423
4675.22211,0.13711
4676.18456,0.1349
4677.14692,0.13864
4678.10918,0.23783
4679.07136,0.04236
4680.03344,0.07303
4680.99543,0.12024
4682.19779,0.07472
4683.15958,0.31628
4684.12127,0.34135
4685.08287,0.54906
4686.04439,0.51247
4687.00581,0.81226
4688.20745,0.66355
4689.16867,0.49664
4690.12979,1.23133
4691.09082,0.79971
4692.05176,0.74408
4693.01261,1.23076
4694.21355,0.76475
4695.17419,1.02981
4696.13474,0.62173
4697.0952,0.60198
4698.05557,0.8389
4699.01585,0.32968
4700.21606,0.98407
4701.17613,0.08645
4702.13611,0.31563
4703.096,0.40226
4704.0558,0.83956
4705.0155,0.57443
4706.215,0.18092
4707.1745,0.12478
4708.13391,0.61004
4709.09322,0.06912
4710.05244,1.46451
4711.01157,0.1618
4712.21036,0.99161
4713.16928,0.36183
4714.12811,0.14185
4715.08685,0.27877
4716.0455,0.10423
4717.00406,0.42056
4718.20212,0.66419
4719.16047,1.23767
4720.11873,0.2837
4721.07689,0.43508
4722.03497,0.01221
4722.99295,1.32284
4724.1903,1.14831
4725.14807,0.33824
4726.10575,0.32951
4727.06334,1.07039
4728.02084,0.45668
4728.97824,0.08751
4730.17487,0.07664
4731.13207,0.60996
4732.08917,0.36173
4733.04619,0.23287
4734.00311,0.48513
4735.19913,0.1422
4736.15584,0.58586
4737.11246,0.69215
4738.06899,0.12703
4739.02543,0.11377
4739.98177,0.46286
4741.17707,0.46388
4742.13321,0.3166
4743.08925,1.25454
4744.0452,0.23056
4745.00106,0.18238
4746.19576,0.22315
4747.15141,0.30705
4748.10696,0.08679
4749.06243,0.14803
4750.0178,0.20364
4750.97308,0.42227
4752.16705,0.00809
4753.12212,0.34708
4754.0771,0.69519
4755.03199,0.52064
4755.98678,0.53859
4757.18014,0.19176
4758.13473,0.58955
4759.08922,0.02765
4760.04362,0.46831
4760.99793,0.39489
4762.19068,0.21786
4763.14478,0.30386
4764.09878,0.61323
4765.0527,0.03866
4766.00651,0.17167
4766.96024,0.24049
4768.15227,0.03471
4769.10579,0.31556
4770.05921,0.43475
4771.01254,0.19174
4771.96578,0.79585
4773.1572,0.41207
4774.11022,0.19655
4775.06316,0.32899
4776.016,0.60389
4776.96875,0.82112
4778.15956,0.23254
4779.1121,0.54457
4780.06454,0.18194
4781.0169,0.54848
4781.96916,0.58992
4783.15935,0.34126
4784.1114,0.20591
4785.06336,0.61439
4786.01522,0.13553
4786.967,0.50711
4788.15658,0.15357
4789.10814,0.23136
4790.05961,0.11554
4791.01098,0.02008
4791.96226,0.38551
4793.15123,1.08986
4794.1023,0.66593
4795.05328,0.12568
4796.00416,0.53643
4796.95495,0.48202
4798.14331,0.21081
4799.09389,0.24581
4800.04437,0.3431
4800.99476,0.05445
4802.18262,0.7079
4803.1328,0.28364
4804.08289,0.38289
4805.03289,0.13771
4805.98279,0.28716
4807.17003,0.02447
4808.11972,0.20458
4809.06932,0.56735
4810.01882,0.89006
4810.96823,0.26453
4812.15486,1.06536
4813.10405,0.41503
4814.05316,0.91323
4815.00217,0.38845
4815.95108,0.54041
4817.1371,0.08834
4818.0858,0.22091
4819.03441,0.15873
4819.98293,0.37761
4821.16844,0.06751
4822.11675,0.09963
4823.06496,0.16624
4824.01308,0.18453
4824.9611,0.8208
4826.146,0.27232
4827.09381,0.03035
4828.04153,0.33171
4828.98915,0.7177
4830.17355,0.30568
4831.12096,0.59093
4832.06828,0.48915
4833.0155,0.09816
4833.96263,0.86398
4835.14641,0.81734
4836.09332,0.37546
4837.04015,0.19415
4837.98687,0.37022
4839.17015,0.12571
4840.11667,0.21026
4841.06309,0.48859
4842.00942,0.156
4842.95565,0.53494
4844.13831,0.09455
4845.08433,0.76882
4846.03025,0.27631
4846.97609,0.6329
4848.15824,0.10092
4849.10386,0.5304
4850.04939,0.68449
4850.99482,0.13228
4851.94015,0.08016
4853.12169,0.50091
4854.06681,0.0075
4855.01184,0.47418
4855.95677,0.13386
4857.1378,0.04409
4858.08252,0.52649
4859.02715,0.74219
4859.97168,0.37827
4861.15221,0.90278
4862.09653,0.6998
4863.04075,0.6857
4863.98488,0.56975
4864.92891,0.17099
4866.10882,0.81759
4867.05264,0.21172
4867.99636,0.11595
4868.93999,0.02329
4870.11939,0.12729
4871.06281,1.07056
4872.00613,0.34246
4872.94936,0.54553
4874.12826,0.73303
4875.07127,0.8018
4876.01419,0.53719
4876.95701,0.54816
4878.1354,0.08366
4879.07801,0.13991
4880.02053,0.97254
4880.96294,0.15292
4882.14083,1.23748
4883.08304,0.04614
4884.02514,0.17526
4884.96716,0.28803
4886.14454,0.2881
4887.08634,0.54247
4888.02804,0.50908
4888.96965,0.30111
4890.14653,0.32843
4891.08792,0.55255
4892.02922,0.64537
4892.97043,0.35966
4894.1468,0.38761
4895.08779,0.29594
4896.02868,0.17469
4896.96948,1.06974
4898.14534,0.45326
4899.08592,0.5485
4900.02641,0.02385
4900.9668,0.0079
4902.14216,0.03092
4903.08234,0.000957018
4904.02242,0.01431
4904.9624,0.11368
4906.13725,0.2013
4907.07702,0.07674
4908.0167,0.33163
4908.95628,0.34554
4910.13062,0.43599
4911.06998,0.42814
4912.00925,0.58933
4912.94842,0.34077
4914.12225,0.30404
4915.06121,0.51552
4916.00007,0.87088
4916.93883,0.60131
4918.11216,0.24455
4919.05071,0.39532
4919.98916,0.177
4920.92752,0.18151
4922.10033,0.34249
4923.03847,0.01237
4923.97652,0.68073
4924.91447,0.0676
4926.08677,0.0521
4927.0245,0.47711
4927.96214,0.19676
4929.13405,0.4908
4930.07147,0.27548
4931.0088,0.13135
4931.94603,0.07207
4933.11743,0.13104
4934.05444,0.2109
4934.99136,0.07934
4935.92818,1.35423
4937.09907,0.08256
4938.03568,0.54096
4938.97218,0.96183
4939.9086,0.345
4941.07897,0.26289
4942.01517,0.55312
4942.95127,0.18299
4944.12125,0.6475
4945.05714,0.79629
4945.99292,1.31916
4946.92861,0.80307
4948.09809,0.0402
4949.03356,0.38048
4949.96893,0.63915
4950.90421,0.00601
4952.07317,0.62681
4953.00824,0.03497
4953.9432,1.23631
4955.11177,0.09165
4956.04652,0.56732
4956.98117,0.5263
4957.91572,0.31745
4959.08378,0.26763
4960.01812,0.55816
4960.95236,0.2918
4962.12002,0.60752
4963.05404,0.38832
4963.98797,0.3616
4964.9218,0.57488
4966.08895,0.46321
4967.02256,0.40453
4967.95608,0.84525
4969.12283,0.43832
4970.05613,0.16849
4970.98933,0.22374
4971.92243,0.86605
4973.08867,0.25332
4974.02156,0.78914
4974.95434,0.37218
4976.12019,0.2161
4977.05276,0.40977
4977.98523,0.06279
4978.91761,0.19839
4980.08294,0.55971
4981.0151,0.49883
4981.94716,0.91524
4983.1121,0.30751
4984.04394,0.5682
4984.97568,0.63853
4985.90733,0.09256
4987.07175,0.7956
4988.00318,1.08527
4988.93451,0.61408
4990.09854,0.48893
4991.02965,0.35064
4991.96066,0.27693
4992.89158,0.03304
4994.05509,0.72904
4994.98579,0.12166
4995.91639,0.37811
4997.0795,0.12417
4998.00988,1.19541
4998.94017,1.21026
5000.10289,1.22499
